%OpenBCI Raw EEG Data
%Number of channels = 8
%Sample Rate = 250.0 Hz
%First Column = SampleIndex
%Last Column = Timestamp 
%Other Columns = EEG data in microvolts followed by Accel Data (in G) interleaved with Aux Data
0, 1551.99, 0.00, 0.00, 0.00, 0.00, 0.00, 0.00, 0.00, 0.052, 0.006, 0.514, 15:55:11.419, 1563393311419
1, 1546.85, 0.00, 0.00, 0.00, 0.00, 0.00, 0.00, 0.00, 0.000, 0.000, 0.000, 15:55:11.420, 1563393311420
2, 1527.16, 0.00, 0.00, 0.00, 0.00, 0.00, 0.00, 0.00, 0.000, 0.000, 0.000, 15:55:11.420, 1563393311420
3, 1521.89, 0.00, 0.00, 0.00, 0.00, 0.00, 0.00, 0.00, 0.000, 0.000, 0.000, 15:55:11.420, 1563393311420
4, 1523.63, 0.00, 0.00, 0.00, 0.00, 0.00, 0.00, 0.00, 0.000, 0.000, 0.000, 15:55:11.420, 1563393311420
5, 1524.01, 0.00, 0.00, 0.00, 0.00, 0.00, 0.00, 0.00, 0.000, 0.000, 0.000, 15:55:11.420, 1563393311420
6, 1518.31, 0.00, 0.00, 0.00, 0.00, 0.00, 0.00, 0.00, 0.000, 0.000, 0.000, 15:55:11.420, 1563393311420
7, 1512.68, 0.00, 0.00, 0.00, 0.00, 0.00, 0.00, 0.00, 0.080, 0.016, 0.768, 15:55:11.420, 1563393311420
8, 1510.91, 0.00, 0.00, 0.00, 0.00, 0.00, 0.00, 0.00, 0.000, 0.000, 0.000, 15:55:11.420, 1563393311420
9, 1531.72, 0.00, 0.00, 0.00, 0.00, 0.00, 0.00, 0.00, 0.000, 0.000, 0.000, 15:55:11.420, 1563393311420
10, 1526.02, 0.00, 0.00, 0.00, 0.00, 0.00, 0.00, 0.00, 0.000, 0.000, 0.000, 15:55:11.421, 1563393311421
11, 1511.69, 0.00, 0.00, 0.00, 0.00, 0.00, 0.00, 0.00, 0.000, 0.000, 0.000, 15:55:11.421, 1563393311421
12, 1505.88, 0.00, 0.00, 0.00, 0.00, 0.00, 0.00, 0.00, 0.000, 0.000, 0.000, 15:55:11.421, 1563393311421
13, 1508.50, 0.00, 0.00, 0.00, 0.00, 0.00, 0.00, 0.00, 0.000, 0.000, 0.000, 15:55:11.421, 1563393311421
14, 1501.59, 0.00, 0.00, 0.00, 0.00, 0.00, 0.00, 0.00, 0.000, 0.000, 0.000, 15:55:11.421, 1563393311421
15, 1494.08, 0.00, 0.00, 0.00, 0.00, 0.00, 0.00, 0.00, 0.000, 0.000, 0.000, 15:55:11.421, 1563393311421
16, 1491.20, 0.00, 0.00, 0.00, 0.00, 0.00, 0.00, 0.00, 0.000, 0.000, 0.000, 15:55:11.421, 1563393311421
17, 1502.62, 0.00, 0.00, 0.00, 0.00, 0.00, 0.00, 0.00, 0.090, 0.014, 0.898, 15:55:11.421, 1563393311421
18, 1511.29, 0.00, 0.00, 0.00, 0.00, 0.00, 0.00, 0.00, 0.000, 0.000, 0.000, 15:55:11.421, 1563393311421
19, 1497.39, 0.00, 0.00, 0.00, 0.00, 0.00, 0.00, 0.00, 0.000, 0.000, 0.000, 15:55:11.421, 1563393311421
20, 1495.33, 0.00, 0.00, 0.00, 0.00, 0.00, 0.00, 0.00, 0.000, 0.000, 0.000, 15:55:11.421, 1563393311421
21, 1505.57, 0.00, 0.00, 0.00, 0.00, 0.00, 0.00, 0.00, 0.000, 0.000, 0.000, 15:55:11.421, 1563393311421
22, 1497.63, 0.00, 0.00, 0.00, 0.00, 0.00, 0.00, 0.00, 0.000, 0.000, 0.000, 15:55:11.421, 1563393311421
23, 1489.48, 0.00, 0.00, 0.00, 0.00, 0.00, 0.00, 0.00, 0.000, 0.000, 0.000, 15:55:11.421, 1563393311421
24, 1485.01, 0.00, 0.00, 0.00, 0.00, 0.00, 0.00, 0.00, 0.000, 0.000, 0.000, 15:55:11.421, 1563393311421
25, 1489.90, 0.00, 0.00, 0.00, 0.00, 0.00, 0.00, 0.00, 0.000, 0.000, 0.000, 15:55:11.421, 1563393311421
26, 1489.99, 0.00, 0.00, 0.00, 0.00, 0.00, 0.00, 0.00, 0.000, 0.000, 0.000, 15:55:11.421, 1563393311421
27, 1484.04, 0.00, 0.00, 0.00, 0.00, 0.00, 0.00, 0.00, 0.098, 0.016, 0.958, 15:55:11.421, 1563393311421
28, 1482.28, 0.00, 0.00, 0.00, 0.00, 0.00, 0.00, 0.00, 0.000, 0.000, 0.000, 15:55:11.421, 1563393311421
29, 1491.26, 0.00, 0.00, 0.00, 0.00, 0.00, 0.00, 0.00, 0.000, 0.000, 0.000, 15:55:11.421, 1563393311421
30, 1486.37, 0.00, 0.00, 0.00, 0.00, 0.00, 0.00, 0.00, 0.000, 0.000, 0.000, 15:55:11.421, 1563393311421
31, 1470.77, 0.00, 0.00, 0.00, 0.00, 0.00, 0.00, 0.00, 0.000, 0.000, 0.000, 15:55:11.422, 1563393311422
32, 1459.66, 0.00, 0.00, 0.00, 0.00, 0.00, 0.00, 0.00, 0.000, 0.000, 0.000, 15:55:11.422, 1563393311422
33, 1471.17, 0.00, 0.00, 0.00, 0.00, 0.00, 0.00, 0.00, 0.000, 0.000, 0.000, 15:55:11.422, 1563393311422
34, 1485.32, 0.00, 0.00, 0.00, 0.00, 0.00, 0.00, 0.00, 0.000, 0.000, 0.000, 15:55:11.422, 1563393311422
35, 1487.51, 0.00, 0.00, 0.00, 0.00, 0.00, 0.00, 0.00, 0.000, 0.000, 0.000, 15:55:11.422, 1563393311422
36, 1471.55, 0.00, 0.00, 0.00, 0.00, 0.00, 0.00, 0.00, 0.000, 0.000, 0.000, 15:55:11.422, 1563393311422
37, 1464.04, 0.00, 0.00, 0.00, 0.00, 0.00, 0.00, 0.00, 0.102, 0.020, 0.986, 15:55:11.422, 1563393311422
38, 1468.89, 0.00, 0.00, 0.00, 0.00, 0.00, 0.00, 0.00, 0.000, 0.000, 0.000, 15:55:11.422, 1563393311422
39, 1474.14, 0.00, 0.00, 0.00, 0.00, 0.00, 0.00, 0.00, 0.000, 0.000, 0.000, 15:55:11.422, 1563393311422
40, 1475.35, 0.00, 0.00, 0.00, 0.00, 0.00, 0.00, 0.00, 0.000, 0.000, 0.000, 15:55:11.422, 1563393311422
41, 1457.76, 0.00, 0.00, 0.00, 0.00, 0.00, 0.00, 0.00, 0.000, 0.000, 0.000, 15:55:11.422, 1563393311422
42, 1463.91, 0.00, 0.00, 0.00, 0.00, 0.00, 0.00, 0.00, 0.000, 0.000, 0.000, 15:55:11.422, 1563393311422
43, 1486.30, 0.00, 0.00, 0.00, 0.00, 0.00, 0.00, 0.00, 0.000, 0.000, 0.000, 15:55:11.422, 1563393311422
44, 1473.16, 0.00, 0.00, 0.00, 0.00, 0.00, 0.00, 0.00, 0.000, 0.000, 0.000, 15:55:11.422, 1563393311422
45, 1461.78, 0.00, 0.00, 0.00, 0.00, 0.00, 0.00, 0.00, 0.000, 0.000, 0.000, 15:55:11.422, 1563393311422
46, 1473.70, 0.00, 0.00, 0.00, 0.00, 0.00, 0.00, 0.00, 0.000, 0.000, 0.000, 15:55:11.422, 1563393311422
47, 1473.05, 0.00, 0.00, 0.00, 0.00, 0.00, 0.00, 0.00, 0.000, 0.000, 0.000, 15:55:11.422, 1563393311422
48, 1457.91, 0.00, 0.00, 0.00, 0.00, 0.00, 0.00, 0.00, 0.100, 0.016, 1.004, 15:55:11.422, 1563393311422
49, 1454.61, 0.00, 0.00, 0.00, 0.00, 0.00, 0.00, 0.00, 0.000, 0.000, 0.000, 15:55:11.422, 1563393311422
50, 1448.33, 0.00, 0.00, 0.00, 0.00, 0.00, 0.00, 0.00, 0.000, 0.000, 0.000, 15:55:11.422, 1563393311422
51, 1444.82, 0.00, 0.00, 0.00, 0.00, 0.00, 0.00, 0.00, 0.000, 0.000, 0.000, 15:55:11.423, 1563393311423
52, 1449.56, 0.00, 0.00, 0.00, 0.00, 0.00, 0.00, 0.00, 0.000, 0.000, 0.000, 15:55:11.423, 1563393311423
53, 1447.28, 0.00, 0.00, 0.00, 0.00, 0.00, 0.00, 0.00, 0.000, 0.000, 0.000, 15:55:11.423, 1563393311423
54, 1446.14, 0.00, 0.00, 0.00, 0.00, 0.00, 0.00, 0.00, 0.000, 0.000, 0.000, 15:55:11.423, 1563393311423
55, 1452.48, 0.00, 0.00, 0.00, 0.00, 0.00, 0.00, 0.00, 0.000, 0.000, 0.000, 15:55:11.423, 1563393311423
56, 1440.26, 0.00, 0.00, 0.00, 0.00, 0.00, 0.00, 0.00, 0.000, 0.000, 0.000, 15:55:11.423, 1563393311423
57, 1423.98, 0.00, 0.00, 0.00, 0.00, 0.00, 0.00, 0.00, 0.000, 0.000, 0.000, 15:55:11.423, 1563393311423
58, 1446.63, 0.00, 0.00, 0.00, 0.00, 0.00, 0.00, 0.00, 0.100, 0.016, 1.012, 15:55:11.423, 1563393311423
59, 1464.87, 0.00, 0.00, 0.00, 0.00, 0.00, 0.00, 0.00, 0.000, 0.000, 0.000, 15:55:11.423, 1563393311423
60, 1451.12, 0.00, 0.00, 0.00, 0.00, 0.00, 0.00, 0.00, 0.000, 0.000, 0.000, 15:55:11.423, 1563393311423
61, 1438.74, 0.00, 0.00, 0.00, 0.00, 0.00, 0.00, 0.00, 0.000, 0.000, 0.000, 15:55:11.423, 1563393311423
62, 1445.67, 0.00, 0.00, 0.00, 0.00, 0.00, 0.00, 0.00, 0.000, 0.000, 0.000, 15:55:11.423, 1563393311423
63, 1450.54, 0.00, 0.00, 0.00, 0.00, 0.00, 0.00, 0.00, 0.000, 0.000, 0.000, 15:55:11.423, 1563393311423
64, 1454.45, 0.00, 0.00, 0.00, 0.00, 0.00, 0.00, 0.00, 0.000, 0.000, 0.000, 15:55:11.423, 1563393311423
65, 1442.05, 0.00, 0.00, 0.00, 0.00, 0.00, 0.00, 0.00, 0.000, 0.000, 0.000, 15:55:11.423, 1563393311423
66, 1426.33, 0.00, 0.00, 0.00, 0.00, 0.00, 0.00, 0.00, 0.000, 0.000, 0.000, 15:55:11.423, 1563393311423
67, 1426.09, 0.00, 0.00, 0.00, 0.00, 0.00, 0.00, 0.00, 0.000, 0.000, 0.000, 15:55:11.423, 1563393311423
68, 1436.57, 0.00, 0.00, 0.00, 0.00, 0.00, 0.00, 0.00, 0.102, 0.018, 1.016, 15:55:11.423, 1563393311423
69, 1426.78, 0.00, 0.00, 0.00, 0.00, 0.00, 0.00, 0.00, 0.000, 0.000, 0.000, 15:55:11.423, 1563393311423
70, 1428.05, 0.00, 0.00, 0.00, 0.00, 0.00, 0.00, 0.00, 0.000, 0.000, 0.000, 15:55:11.423, 1563393311423
71, 1442.20, 0.00, 0.00, 0.00, 0.00, 0.00, 0.00, 0.00, 0.000, 0.000, 0.000, 15:55:11.423, 1563393311423
72, 1457.47, 0.00, 0.00, 0.00, 0.00, 0.00, 0.00, 0.00, 0.000, 0.000, 0.000, 15:55:11.424, 1563393311424
73, 1450.18, 0.00, 0.00, 0.00, 0.00, 0.00, 0.00, 0.00, 0.000, 0.000, 0.000, 15:55:11.424, 1563393311424
74, 1432.05, 0.00, 0.00, 0.00, 0.00, 0.00, 0.00, 0.00, 0.000, 0.000, 0.000, 15:55:11.424, 1563393311424
75, 1405.34, 0.00, 0.00, 0.00, 0.00, 0.00, 0.00, 0.00, 0.000, 0.000, 0.000, 15:55:11.424, 1563393311424
76, 1422.53, 0.00, 0.00, 0.00, 0.00, 0.00, 0.00, 0.00, 0.000, 0.000, 0.000, 15:55:11.424, 1563393311424
77, 1432.88, 0.00, 0.00, 0.00, 0.00, 0.00, 0.00, 0.00, 0.000, 0.000, 0.000, 15:55:11.424, 1563393311424
78, 1429.53, 0.00, 0.00, 0.00, 0.00, 0.00, 0.00, 0.00, 0.104, 0.020, 1.028, 15:55:11.424, 1563393311424
79, 1418.96, 0.00, 0.00, 0.00, 0.00, 0.00, 0.00, 0.00, 0.000, 0.000, 0.000, 15:55:11.424, 1563393311424
80, 1401.07, 0.00, 0.00, 0.00, 0.00, 0.00, 0.00, 0.00, 0.000, 0.000, 0.000, 15:55:11.424, 1563393311424
81, 1410.55, 0.00, 0.00, 0.00, 0.00, 0.00, 0.00, 0.00, 0.000, 0.000, 0.000, 15:55:11.424, 1563393311424
82, 1397.63, 0.00, 0.00, 0.00, 0.00, 0.00, 0.00, 0.00, 0.000, 0.000, 0.000, 15:55:11.424, 1563393311424
83, 1402.55, 0.00, 0.00, 0.00, 0.00, 0.00, 0.00, 0.00, 0.000, 0.000, 0.000, 15:55:11.424, 1563393311424
84, 1421.24, 0.00, 0.00, 0.00, 0.00, 0.00, 0.00, 0.00, 0.000, 0.000, 0.000, 15:55:11.424, 1563393311424
85, 1411.13, 0.00, 0.00, 0.00, 0.00, 0.00, 0.00, 0.00, 0.000, 0.000, 0.000, 15:55:11.424, 1563393311424
86, 1420.14, 0.00, 0.00, 0.00, 0.00, 0.00, 0.00, 0.00, 0.000, 0.000, 0.000, 15:55:11.424, 1563393311424
87, 1403.31, 0.00, 0.00, 0.00, 0.00, 0.00, 0.00, 0.00, 0.000, 0.000, 0.000, 15:55:11.424, 1563393311424
88, 1405.32, 0.00, 0.00, 0.00, 0.00, 0.00, 0.00, 0.00, 0.098, 0.018, 1.032, 15:55:11.424, 1563393311424
89, 1400.45, 0.00, 0.00, 0.00, 0.00, 0.00, 0.00, 0.00, 0.000, 0.000, 0.000, 15:55:11.424, 1563393311424
90, 1393.77, 0.00, 0.00, 0.00, 0.00, 0.00, 0.00, 0.00, 0.000, 0.000, 0.000, 15:55:11.424, 1563393311424
91, 1408.36, 0.00, 0.00, 0.00, 0.00, 0.00, 0.00, 0.00, 0.000, 0.000, 0.000, 15:55:11.424, 1563393311424
92, 1417.10, 0.00, 0.00, 0.00, 0.00, 0.00, 0.00, 0.00, 0.000, 0.000, 0.000, 15:55:11.424, 1563393311424
93, 1418.62, 0.00, 0.00, 0.00, 0.00, 0.00, 0.00, 0.00, 0.000, 0.000, 0.000, 15:55:11.425, 1563393311425
94, 1400.40, 0.00, 0.00, 0.00, 0.00, 0.00, 0.00, 0.00, 0.000, 0.000, 0.000, 15:55:11.425, 1563393311425
95, 1391.33, 0.00, 0.00, 0.00, 0.00, 0.00, 0.00, 0.00, 0.000, 0.000, 0.000, 15:55:11.425, 1563393311425
96, 1403.11, 0.00, 0.00, 0.00, 0.00, 0.00, 0.00, 0.00, 0.000, 0.000, 0.000, 15:55:11.425, 1563393311425
97, 1402.30, 0.00, 0.00, 0.00, 0.00, 0.00, 0.00, 0.00, 0.000, 0.000, 0.000, 15:55:11.425, 1563393311425
98, 1396.60, 0.00, 0.00, 0.00, 0.00, 0.00, 0.00, 0.00, 0.000, 0.000, 0.000, 15:55:11.425, 1563393311425
99, 1388.33, 0.00, 0.00, 0.00, 0.00, 0.00, 0.00, 0.00, 0.096, 0.020, 1.024, 15:55:11.425, 1563393311425
100, 1394.50, 0.00, 0.00, 0.00, 0.00, 0.00, 0.00, 0.00, 0.000, 0.000, 0.000, 15:55:11.425, 1563393311425
101, 1401.21, 0.00, 0.00, 0.00, 0.00, 0.00, 0.00, 0.00, 0.000, 0.000, 0.000, 15:55:11.425, 1563393311425
102, 1394.73, 0.00, 0.00, 0.00, 0.00, 0.00, 0.00, 0.00, 0.000, 0.000, 0.000, 15:55:11.425, 1563393311425
103, 1381.54, 0.00, 0.00, 0.00, 0.00, 0.00, 0.00, 0.00, 0.000, 0.000, 0.000, 15:55:11.425, 1563393311425
104, 1384.94, 0.00, 0.00, 0.00, 0.00, 0.00, 0.00, 0.00, 0.000, 0.000, 0.000, 15:55:11.425, 1563393311425
105, 1396.78, 0.00, 0.00, 0.00, 0.00, 0.00, 0.00, 0.00, 0.000, 0.000, 0.000, 15:55:11.425, 1563393311425
106, 1392.67, 0.00, 0.00, 0.00, 0.00, 0.00, 0.00, 0.00, 0.000, 0.000, 0.000, 15:55:11.425, 1563393311425
107, 1388.04, 0.00, 0.00, 0.00, 0.00, 0.00, 0.00, 0.00, 0.000, 0.000, 0.000, 15:55:11.425, 1563393311425
108, 1381.20, 0.00, 0.00, 0.00, 0.00, 0.00, 0.00, 0.00, 0.000, 0.000, 0.000, 15:55:11.425, 1563393311425
109, 1389.45, 0.00, 0.00, 0.00, 0.00, 0.00, 0.00, 0.00, 0.106, 0.022, 1.020, 15:55:11.425, 1563393311425
110, 1382.66, 0.00, 0.00, 0.00, 0.00, 0.00, 0.00, 0.00, 0.000, 0.000, 0.000, 15:55:11.425, 1563393311425
111, 1364.71, 0.00, 0.00, 0.00, 0.00, 0.00, 0.00, 0.00, 0.000, 0.000, 0.000, 15:55:11.425, 1563393311425
112, 1367.90, 0.00, 0.00, 0.00, 0.00, 0.00, 0.00, 0.00, 0.000, 0.000, 0.000, 15:55:11.425, 1563393311425
113, 1378.10, 0.00, 0.00, 0.00, 0.00, 0.00, 0.00, 0.00, 0.000, 0.000, 0.000, 15:55:11.426, 1563393311426
114, 1376.73, 0.00, 0.00, 0.00, 0.00, 0.00, 0.00, 0.00, 0.000, 0.000, 0.000, 15:55:11.426, 1563393311426
115, 1361.87, 0.00, 0.00, 0.00, 0.00, 0.00, 0.00, 0.00, 0.000, 0.000, 0.000, 15:55:11.426, 1563393311426
116, 1370.85, 0.00, 0.00, 0.00, 0.00, 0.00, 0.00, 0.00, 0.000, 0.000, 0.000, 15:55:11.426, 1563393311426
117, 1395.11, 0.00, 0.00, 0.00, 0.00, 0.00, 0.00, 0.00, 0.000, 0.000, 0.000, 15:55:11.426, 1563393311426
118, 1405.08, 0.00, 0.00, 0.00, 0.00, 0.00, 0.00, 0.00, 0.000, 0.000, 0.000, 15:55:11.426, 1563393311426
119, 1377.72, 0.00, 0.00, 0.00, 0.00, 0.00, 0.00, 0.00, 0.104, 0.022, 1.026, 15:55:11.426, 1563393311426
120, 1371.53, 0.00, 0.00, 0.00, 0.00, 0.00, 0.00, 0.00, 0.000, 0.000, 0.000, 15:55:11.426, 1563393311426
121, 1383.75, 0.00, 0.00, 0.00, 0.00, 0.00, 0.00, 0.00, 0.000, 0.000, 0.000, 15:55:11.902, 1563393311902
122, 1397.83, 0.00, 0.00, 0.00, 0.00, 0.00, 0.00, 0.00, 0.000, 0.000, 0.000, 15:55:11.903, 1563393311903
123, 1384.65, 0.00, 0.00, 0.00, 0.00, 0.00, 0.00, 0.00, 0.000, 0.000, 0.000, 15:55:11.903, 1563393311903
124, 1371.23, 0.00, 0.00, 0.00, 0.00, 0.00, 0.00, 0.00, 0.000, 0.000, 0.000, 15:55:11.903, 1563393311903
125, 1347.05, 0.00, 0.00, 0.00, 0.00, 0.00, 0.00, 0.00, 0.000, 0.000, 0.000, 15:55:11.903, 1563393311903
126, 1363.79, 0.00, 0.00, 0.00, 0.00, 0.00, 0.00, 0.00, 0.000, 0.000, 0.000, 15:55:11.903, 1563393311903
127, 1391.24, 0.00, 0.00, 0.00, 0.00, 0.00, 0.00, 0.00, 0.000, 0.000, 0.000, 15:55:11.903, 1563393311903
128, 1356.62, 0.00, 0.00, 0.00, 0.00, 0.00, 0.00, 0.00, 0.000, 0.000, 0.000, 15:55:11.903, 1563393311903
129, 1331.63, 0.00, 0.00, 0.00, 0.00, 0.00, 0.00, 0.00, 0.102, 0.020, 1.026, 15:55:11.903, 1563393311903
130, 1325.53, 0.00, 0.00, 0.00, 0.00, 0.00, 0.00, 0.00, 0.000, 0.000, 0.000, 15:55:11.903, 1563393311903
131, 1311.09, 0.00, 0.00, 0.00, 0.00, 0.00, 0.00, 0.00, 0.000, 0.000, 0.000, 15:55:11.903, 1563393311903
132, 1277.40, 0.00, 0.00, 0.00, 0.00, 0.00, 0.00, 0.00, 0.000, 0.000, 0.000, 15:55:11.903, 1563393311903
133, 1251.50, 0.00, 0.00, 0.00, 0.00, 0.00, 0.00, 0.00, 0.000, 0.000, 0.000, 15:55:11.903, 1563393311903
134, 1229.52, 0.00, 0.00, 0.00, 0.00, 0.00, 0.00, 0.00, 0.000, 0.000, 0.000, 15:55:11.903, 1563393311903
135, 1207.84, 0.00, 0.00, 0.00, 0.00, 0.00, 0.00, 0.00, 0.000, 0.000, 0.000, 15:55:11.903, 1563393311903
136, 1183.73, 0.00, 0.00, 0.00, 0.00, 0.00, 0.00, 0.00, 0.000, 0.000, 0.000, 15:55:11.904, 1563393311904
137, 1179.68, 0.00, 0.00, 0.00, 0.00, 0.00, 0.00, 0.00, 0.000, 0.000, 0.000, 15:55:11.904, 1563393311904
138, 1179.99, 0.00, 0.00, 0.00, 0.00, 0.00, 0.00, 0.00, 0.000, 0.000, 0.000, 15:55:11.904, 1563393311904
139, 1185.31, 0.00, 0.00, 0.00, 0.00, 0.00, 0.00, 0.00, 0.100, 0.016, 1.022, 15:55:11.904, 1563393311904
140, 1175.77, 0.00, 0.00, 0.00, 0.00, 0.00, 0.00, 0.00, 0.000, 0.000, 0.000, 15:55:11.904, 1563393311904
141, 1165.33, 0.00, 0.00, 0.00, 0.00, 0.00, 0.00, 0.00, 0.000, 0.000, 0.000, 15:55:11.904, 1563393311904
142, 1181.40, 0.00, 0.00, 0.00, 0.00, 0.00, 0.00, 0.00, 0.000, 0.000, 0.000, 15:55:11.904, 1563393311904
143, 1162.47, 0.00, 0.00, 0.00, 0.00, 0.00, 0.00, 0.00, 0.000, 0.000, 0.000, 15:55:11.904, 1563393311904
144, 1158.11, 0.00, 0.00, 0.00, 0.00, 0.00, 0.00, 0.00, 0.000, 0.000, 0.000, 15:55:11.904, 1563393311904
145, 1175.77, 0.00, 0.00, 0.00, 0.00, 0.00, 0.00, 0.00, 0.000, 0.000, 0.000, 15:55:11.904, 1563393311904
146, 1172.48, 0.00, 0.00, 0.00, 0.00, 0.00, 0.00, 0.00, 0.000, 0.000, 0.000, 15:55:11.904, 1563393311904
147, 1185.85, 0.00, 0.00, 0.00, 0.00, 0.00, 0.00, 0.00, 0.000, 0.000, 0.000, 15:55:11.904, 1563393311904
148, 1182.81, 0.00, 0.00, 0.00, 0.00, 0.00, 0.00, 0.00, 0.000, 0.000, 0.000, 15:55:11.904, 1563393311904
149, 1175.55, 0.00, 0.00, 0.00, 0.00, 0.00, 0.00, 0.00, 0.000, 0.000, 0.000, 15:55:11.904, 1563393311904
150, 1167.86, 0.00, 0.00, 0.00, 0.00, 0.00, 0.00, 0.00, 0.100, 0.020, 1.026, 15:55:11.904, 1563393311904
151, 1175.10, 0.00, 0.00, 0.00, 0.00, 0.00, 0.00, 0.00, 0.000, 0.000, 0.000, 15:55:11.904, 1563393311904
152, 1182.38, 0.00, 0.00, 0.00, 0.00, 0.00, 0.00, 0.00, 0.000, 0.000, 0.000, 15:55:11.904, 1563393311904
153, 1180.60, 0.00, 0.00, 0.00, 0.00, 0.00, 0.00, 0.00, 0.000, 0.000, 0.000, 15:55:11.904, 1563393311904
154, 1175.99, 0.00, 0.00, 0.00, 0.00, 0.00, 0.00, 0.00, 0.000, 0.000, 0.000, 15:55:11.904, 1563393311904
155, 1204.04, 0.00, 0.00, 0.00, 0.00, 0.00, 0.00, 0.00, 0.000, 0.000, 0.000, 15:55:11.904, 1563393311904
156, 1204.13, 0.00, 0.00, 0.00, 0.00, 0.00, 0.00, 0.00, 0.000, 0.000, 0.000, 15:55:11.904, 1563393311904
157, 1189.31, 0.00, 0.00, 0.00, 0.00, 0.00, 0.00, 0.00, 0.000, 0.000, 0.000, 15:55:11.905, 1563393311905
158, 1199.64, 0.00, 0.00, 0.00, 0.00, 0.00, 0.00, 0.00, 0.000, 0.000, 0.000, 15:55:11.905, 1563393311905
159, 1201.83, 0.00, 0.00, 0.00, 0.00, 0.00, 0.00, 0.00, 0.000, 0.000, 0.000, 15:55:11.905, 1563393311905
160, 1198.81, 0.00, 0.00, 0.00, 0.00, 0.00, 0.00, 0.00, 0.102, 0.022, 1.030, 15:55:11.905, 1563393311905
161, 1205.56, 0.00, 0.00, 0.00, 0.00, 0.00, 0.00, 0.00, 0.000, 0.000, 0.000, 15:55:11.905, 1563393311905
162, 1211.87, 0.00, 0.00, 0.00, 0.00, 0.00, 0.00, 0.00, 0.000, 0.000, 0.000, 15:55:11.905, 1563393311905
163, 1224.63, 0.00, 0.00, 0.00, 0.00, 0.00, 0.00, 0.00, 0.000, 0.000, 0.000, 15:55:11.905, 1563393311905
164, 1223.67, 0.00, 0.00, 0.00, 0.00, 0.00, 0.00, 0.00, 0.000, 0.000, 0.000, 15:55:11.905, 1563393311905
165, 1212.20, 0.00, 0.00, 0.00, 0.00, 0.00, 0.00, 0.00, 0.000, 0.000, 0.000, 15:55:11.905, 1563393311905
166, 1210.24, 0.00, 0.00, 0.00, 0.00, 0.00, 0.00, 0.00, 0.000, 0.000, 0.000, 15:55:11.905, 1563393311905
167, 1232.43, 0.00, 0.00, 0.00, 0.00, 0.00, 0.00, 0.00, 0.000, 0.000, 0.000, 15:55:11.905, 1563393311905
168, 1236.39, 0.00, 0.00, 0.00, 0.00, 0.00, 0.00, 0.00, 0.000, 0.000, 0.000, 15:55:11.905, 1563393311905
169, 1232.01, 0.00, 0.00, 0.00, 0.00, 0.00, 0.00, 0.00, 0.000, 0.000, 0.000, 15:55:11.905, 1563393311905
170, 1226.28, 0.00, 0.00, 0.00, 0.00, 0.00, 0.00, 0.00, 0.102, 0.024, 1.026, 15:55:11.905, 1563393311905
171, 1228.99, 0.00, 0.00, 0.00, 0.00, 0.00, 0.00, 0.00, 0.000, 0.000, 0.000, 15:55:11.905, 1563393311905
172, 1252.10, 0.00, 0.00, 0.00, 0.00, 0.00, 0.00, 0.00, 0.000, 0.000, 0.000, 15:55:11.905, 1563393311905
173, 1246.51, 0.00, 0.00, 0.00, 0.00, 0.00, 0.00, 0.00, 0.000, 0.000, 0.000, 15:55:11.905, 1563393311905
174, 1228.68, 0.00, 0.00, 0.00, 0.00, 0.00, 0.00, 0.00, 0.000, 0.000, 0.000, 15:55:11.906, 1563393311906
175, 1233.24, 0.00, 0.00, 0.00, 0.00, 0.00, 0.00, 0.00, 0.000, 0.000, 0.000, 15:55:11.906, 1563393311906
176, 1236.70, 0.00, 0.00, 0.00, 0.00, 0.00, 0.00, 0.00, 0.000, 0.000, 0.000, 15:55:11.906, 1563393311906
177, 1218.86, 0.00, 0.00, 0.00, 0.00, 0.00, 0.00, 0.00, 0.000, 0.000, 0.000, 15:55:11.906, 1563393311906
178, 1215.15, 0.00, 0.00, 0.00, 0.00, 0.00, 0.00, 0.00, 0.000, 0.000, 0.000, 15:55:11.906, 1563393311906
179, 1229.77, 0.00, 0.00, 0.00, 0.00, 0.00, 0.00, 0.00, 0.000, 0.000, 0.000, 15:55:11.906, 1563393311906
180, 1236.90, 0.00, 0.00, 0.00, 0.00, 0.00, 0.00, 0.00, 0.102, 0.020, 1.024, 15:55:11.906, 1563393311906
181, 1228.30, 0.00, 0.00, 0.00, 0.00, 0.00, 0.00, 0.00, 0.000, 0.000, 0.000, 15:55:11.906, 1563393311906
182, 1225.39, 0.00, 0.00, 0.00, 0.00, 0.00, 0.00, 0.00, 0.000, 0.000, 0.000, 15:55:11.906, 1563393311906
183, 1222.82, 0.00, 0.00, 0.00, 0.00, 0.00, 0.00, 0.00, 0.000, 0.000, 0.000, 15:55:11.906, 1563393311906
184, 1229.66, 0.00, 0.00, 0.00, 0.00, 0.00, 0.00, 0.00, 0.000, 0.000, 0.000, 15:55:11.906, 1563393311906
185, 1231.89, 0.00, 0.00, 0.00, 0.00, 0.00, 0.00, 0.00, 0.000, 0.000, 0.000, 15:55:11.906, 1563393311906
186, 1205.61, 0.00, 0.00, 0.00, 0.00, 0.00, 0.00, 0.00, 0.000, 0.000, 0.000, 15:55:11.906, 1563393311906
187, 1202.17, 0.00, 0.00, 0.00, 0.00, 0.00, 0.00, 0.00, 0.000, 0.000, 0.000, 15:55:11.906, 1563393311906
188, 1211.40, 0.00, 0.00, 0.00, 0.00, 0.00, 0.00, 0.00, 0.000, 0.000, 0.000, 15:55:11.906, 1563393311906
189, 1217.28, 0.00, 0.00, 0.00, 0.00, 0.00, 0.00, 0.00, 0.000, 0.000, 0.000, 15:55:11.906, 1563393311906
190, 1220.09, 0.00, 0.00, 0.00, 0.00, 0.00, 0.00, 0.00, 0.104, 0.022, 1.024, 15:55:11.906, 1563393311906
191, 1217.90, 0.00, 0.00, 0.00, 0.00, 0.00, 0.00, 0.00, 0.000, 0.000, 0.000, 15:55:11.906, 1563393311906
192, 1231.16, 0.00, 0.00, 0.00, 0.00, 0.00, 0.00, 0.00, 0.000, 0.000, 0.000, 15:55:11.906, 1563393311906
193, 1250.60, 0.00, 0.00, 0.00, 0.00, 0.00, 0.00, 0.00, 0.000, 0.000, 0.000, 15:55:11.907, 1563393311907
194, 1234.42, 0.00, 0.00, 0.00, 0.00, 0.00, 0.00, 0.00, 0.000, 0.000, 0.000, 15:55:11.907, 1563393311907
195, 1224.38, 0.00, 0.00, 0.00, 0.00, 0.00, 0.00, 0.00, 0.000, 0.000, 0.000, 15:55:11.907, 1563393311907
196, 1209.86, 0.00, 0.00, 0.00, 0.00, 0.00, 0.00, 0.00, 0.000, 0.000, 0.000, 15:55:11.907, 1563393311907
197, 1215.80, 0.00, 0.00, 0.00, 0.00, 0.00, 0.00, 0.00, 0.000, 0.000, 0.000, 15:55:11.907, 1563393311907
198, 1207.84, 0.00, 0.00, 0.00, 0.00, 0.00, 0.00, 0.00, 0.000, 0.000, 0.000, 15:55:11.907, 1563393311907
199, 1201.38, 0.00, 0.00, 0.00, 0.00, 0.00, 0.00, 0.00, 0.000, 0.000, 0.000, 15:55:11.907, 1563393311907
200, 1208.92, 0.00, 0.00, 0.00, 0.00, 0.00, 0.00, 0.00, 0.106, 0.026, 1.020, 15:55:11.907, 1563393311907
201, 1231.76, 0.00, 0.00, 0.00, 0.00, 0.00, 0.00, 0.00, 0.000, 0.000, 0.000, 15:55:11.907, 1563393311907
202, 1228.30, 0.00, 0.00, 0.00, 0.00, 0.00, 0.00, 0.00, 0.000, 0.000, 0.000, 15:55:11.907, 1563393311907
203, 1220.20, 0.00, 0.00, 0.00, 0.00, 0.00, 0.00, 0.00, 0.000, 0.000, 0.000, 15:55:11.907, 1563393311907
204, 1221.66, 0.00, 0.00, 0.00, 0.00, 0.00, 0.00, 0.00, 0.000, 0.000, 0.000, 15:55:11.907, 1563393311907
205, 1235.65, 0.00, 0.00, 0.00, 0.00, 0.00, 0.00, 0.00, 0.000, 0.000, 0.000, 15:55:11.907, 1563393311907
206, 1244.88, 0.00, 0.00, 0.00, 0.00, 0.00, 0.00, 0.00, 0.000, 0.000, 0.000, 15:55:11.907, 1563393311907
207, 1216.96, 0.00, 0.00, 0.00, 0.00, 0.00, 0.00, 0.00, 0.000, 0.000, 0.000, 15:55:11.907, 1563393311907
208, 1215.69, 0.00, 0.00, 0.00, 0.00, 0.00, 0.00, 0.00, 0.000, 0.000, 0.000, 15:55:11.907, 1563393311907
209, 1226.31, 0.00, 0.00, 0.00, 0.00, 0.00, 0.00, 0.00, 0.000, 0.000, 0.000, 15:55:11.907, 1563393311907
210, 1235.98, 0.00, 0.00, 0.00, 0.00, 0.00, 0.00, 0.00, 0.000, 0.000, 0.000, 15:55:11.907, 1563393311907
211, 1237.97, 0.00, 0.00, 0.00, 0.00, 0.00, 0.00, 0.00, 0.108, 0.024, 1.020, 15:55:11.908, 1563393311908
212, 1236.86, 0.00, 0.00, 0.00, 0.00, 0.00, 0.00, 0.00, 0.000, 0.000, 0.000, 15:55:11.908, 1563393311908
213, 1234.78, 0.00, 0.00, 0.00, 0.00, 0.00, 0.00, 0.00, 0.000, 0.000, 0.000, 15:55:11.908, 1563393311908
214, 1242.73, 0.00, 0.00, 0.00, 0.00, 0.00, 0.00, 0.00, 0.000, 0.000, 0.000, 15:55:11.908, 1563393311908
215, 1242.82, 0.00, 0.00, 0.00, 0.00, 0.00, 0.00, 0.00, 0.000, 0.000, 0.000, 15:55:11.908, 1563393311908
216, 1258.83, 0.00, 0.00, 0.00, 0.00, 0.00, 0.00, 0.00, 0.000, 0.000, 0.000, 15:55:11.908, 1563393311908
217, 1258.43, 0.00, 0.00, 0.00, 0.00, 0.00, 0.00, 0.00, 0.000, 0.000, 0.000, 15:55:11.908, 1563393311908
218, 1244.17, 0.00, 0.00, 0.00, 0.00, 0.00, 0.00, 0.00, 0.000, 0.000, 0.000, 15:55:11.908, 1563393311908
219, 1205.85, 0.00, 0.00, 0.00, 0.00, 0.00, 0.00, 0.00, 0.000, 0.000, 0.000, 15:55:11.908, 1563393311908
220, 1163.48, 0.00, 0.00, 0.00, 0.00, 0.00, 0.00, 0.00, 0.000, 0.000, 0.000, 15:55:11.908, 1563393311908
221, 1163.21, 0.00, 0.00, 0.00, 0.00, 0.00, 0.00, 0.00, 0.100, 0.022, 1.020, 15:55:11.908, 1563393311908
222, 1170.45, 0.00, 0.00, 0.00, 0.00, 0.00, 0.00, 0.00, 0.000, 0.000, 0.000, 15:55:11.908, 1563393311908
223, 1152.79, 0.00, 0.00, 0.00, 0.00, 0.00, 0.00, 0.00, 0.000, 0.000, 0.000, 15:55:11.908, 1563393311908
224, 1150.87, 0.00, 0.00, 0.00, 0.00, 0.00, 0.00, 0.00, 0.000, 0.000, 0.000, 15:55:11.908, 1563393311908
225, 1165.71, 0.00, 0.00, 0.00, 0.00, 0.00, 0.00, 0.00, 0.000, 0.000, 0.000, 15:55:11.908, 1563393311908
226, 1177.15, 0.00, 0.00, 0.00, 0.00, 0.00, 0.00, 0.00, 0.000, 0.000, 0.000, 15:55:11.908, 1563393311908
227, 1190.03, 0.00, 0.00, 0.00, 0.00, 0.00, 0.00, 0.00, 0.000, 0.000, 0.000, 15:55:11.908, 1563393311908
228, 1185.87, 0.00, 0.00, 0.00, 0.00, 0.00, 0.00, 0.00, 0.000, 0.000, 0.000, 15:55:11.909, 1563393311909
229, 1172.33, 0.00, 0.00, 0.00, 0.00, 0.00, 0.00, 0.00, 0.000, 0.000, 0.000, 15:55:11.909, 1563393311909
230, 1152.99, 0.00, 0.00, 0.00, 0.00, 0.00, 0.00, 0.00, 0.000, 0.000, 0.000, 15:55:11.909, 1563393311909
231, 1143.16, 0.00, 0.00, 0.00, 0.00, 0.00, 0.00, 0.00, 0.098, 0.020, 1.020, 15:55:11.909, 1563393311909
232, 1152.75, 0.00, 0.00, 0.00, 0.00, 0.00, 0.00, 0.00, 0.000, 0.000, 0.000, 15:55:11.909, 1563393311909
233, 1161.20, 0.00, 0.00, 0.00, 0.00, 0.00, 0.00, 0.00, 0.000, 0.000, 0.000, 15:55:11.909, 1563393311909
234, 1194.03, 0.00, 0.00, 0.00, 0.00, 0.00, 0.00, 0.00, 0.000, 0.000, 0.000, 15:55:11.909, 1563393311909
235, 1189.56, 0.00, 0.00, 0.00, 0.00, 0.00, 0.00, 0.00, 0.000, 0.000, 0.000, 15:55:11.909, 1563393311909
236, 1136.05, 0.00, 0.00, 0.00, 0.00, 0.00, 0.00, 0.00, 0.000, 0.000, 0.000, 15:55:11.909, 1563393311909
237, 1143.72, 0.00, 0.00, 0.00, 0.00, 0.00, 0.00, 0.00, 0.000, 0.000, 0.000, 15:55:11.909, 1563393311909
238, 1175.57, 0.00, 0.00, 0.00, 0.00, 0.00, 0.00, 0.00, 0.000, 0.000, 0.000, 15:55:11.909, 1563393311909
239, 1159.54, 0.00, 0.00, 0.00, 0.00, 0.00, 0.00, 0.00, 0.000, 0.000, 0.000, 15:55:11.909, 1563393311909
240, 1162.92, 0.00, 0.00, 0.00, 0.00, 0.00, 0.00, 0.00, 0.000, 0.000, 0.000, 15:55:11.909, 1563393311909
241, 1176.62, 0.00, 0.00, 0.00, 0.00, 0.00, 0.00, 0.00, 0.100, 0.018, 1.026, 15:55:12.387, 1563393312387
242, 1194.39, 0.00, 0.00, 0.00, 0.00, 0.00, 0.00, 0.00, 0.000, 0.000, 0.000, 15:55:12.387, 1563393312387
243, 1203.06, 0.00, 0.00, 0.00, 0.00, 0.00, 0.00, 0.00, 0.000, 0.000, 0.000, 15:55:12.387, 1563393312387
244, 1192.20, 0.00, 0.00, 0.00, 0.00, 0.00, 0.00, 0.00, 0.000, 0.000, 0.000, 15:55:12.387, 1563393312387
245, 1183.17, 0.00, 0.00, 0.00, 0.00, 0.00, 0.00, 0.00, 0.000, 0.000, 0.000, 15:55:12.387, 1563393312387
246, 1185.18, 0.00, 0.00, 0.00, 0.00, 0.00, 0.00, 0.00, 0.000, 0.000, 0.000, 15:55:12.387, 1563393312387
247, 1208.98, 0.00, 0.00, 0.00, 0.00, 0.00, 0.00, 0.00, 0.000, 0.000, 0.000, 15:55:12.387, 1563393312387
248, 1214.44, 0.00, 0.00, 0.00, 0.00, 0.00, 0.00, 0.00, 0.000, 0.000, 0.000, 15:55:12.387, 1563393312387
249, 1204.38, 0.00, 0.00, 0.00, 0.00, 0.00, 0.00, 0.00, 0.000, 0.000, 0.000, 15:55:12.387, 1563393312387
250, 1220.32, 0.00, 0.00, 0.00, 0.00, 0.00, 0.00, 0.00, 0.000, 0.000, 0.000, 15:55:12.388, 1563393312388
251, 1202.93, 0.00, 0.00, 0.00, 0.00, 0.00, 0.00, 0.00, 0.100, 0.016, 1.026, 15:55:12.388, 1563393312388
252, 1204.71, 0.00, 0.00, 0.00, 0.00, 0.00, 0.00, 0.00, 0.000, 0.000, 0.000, 15:55:12.388, 1563393312388
253, 1202.99, 0.00, 0.00, 0.00, 0.00, 0.00, 0.00, 0.00, 0.000, 0.000, 0.000, 15:55:12.388, 1563393312388
254, 1187.68, 0.00, 0.00, 0.00, 0.00, 0.00, 0.00, 0.00, 0.000, 0.000, 0.000, 15:55:12.388, 1563393312388
255, 1236.12, 0.00, 0.00, 0.00, 0.00, 0.00, 0.00, 0.00, 0.000, 0.000, 0.000, 15:55:12.388, 1563393312388
0, 1227.20, 0.00, 0.00, 0.00, 0.00, 0.00, 0.00, 0.00, 0.000, 0.000, 0.000, 15:55:12.388, 1563393312388
1, 1203.71, 0.00, 0.00, 0.00, 0.00, 0.00, 0.00, 0.00, 0.000, 0.000, 0.000, 15:55:12.388, 1563393312388
2, 1207.24, 0.00, 0.00, 0.00, 0.00, 0.00, 0.00, 0.00, 0.000, 0.000, 0.000, 15:55:12.388, 1563393312388
3, 1226.24, 0.00, 0.00, 0.00, 0.00, 0.00, 0.00, 0.00, 0.000, 0.000, 0.000, 15:55:12.388, 1563393312388
4, 1229.57, 0.00, 0.00, 0.00, 0.00, 0.00, 0.00, 0.00, 0.000, 0.000, 0.000, 15:55:12.388, 1563393312388
5, 1232.21, 0.00, 0.00, 0.00, 0.00, 0.00, 0.00, 0.00, 0.000, 0.000, 0.000, 15:55:12.388, 1563393312388
6, 1230.55, 0.00, 0.00, 0.00, 0.00, 0.00, 0.00, 0.00, 0.100, 0.014, 1.024, 15:55:12.388, 1563393312388
7, 1239.87, 0.00, 0.00, 0.00, 0.00, 0.00, 0.00, 0.00, 0.000, 0.000, 0.000, 15:55:12.388, 1563393312388
8, 1239.72, 0.00, 0.00, 0.00, 0.00, 0.00, 0.00, 0.00, 0.000, 0.000, 0.000, 15:55:12.389, 1563393312389
9, 1217.23, 0.00, 0.00, 0.00, 0.00, 0.00, 0.00, 0.00, 0.000, 0.000, 0.000, 15:55:12.389, 1563393312389
10, 1220.34, 0.00, 0.00, 0.00, 0.00, 0.00, 0.00, 0.00, 0.000, 0.000, 0.000, 15:55:12.389, 1563393312389
11, 1232.99, 0.00, 0.00, 0.00, 0.00, 0.00, 0.00, 0.00, 0.000, 0.000, 0.000, 15:55:12.389, 1563393312389
12, 1233.06, 0.00, 0.00, 0.00, 0.00, 0.00, 0.00, 0.00, 0.000, 0.000, 0.000, 15:55:12.389, 1563393312389
13, 1232.81, 0.00, 0.00, 0.00, 0.00, 0.00, 0.00, 0.00, 0.000, 0.000, 0.000, 15:55:12.389, 1563393312389
14, 1228.41, 0.00, 0.00, 0.00, 0.00, 0.00, 0.00, 0.00, 0.000, 0.000, 0.000, 15:55:12.389, 1563393312389
15, 1229.59, 0.00, 0.00, 0.00, 0.00, 0.00, 0.00, 0.00, 0.000, 0.000, 0.000, 15:55:12.389, 1563393312389
16, 1228.85, 0.00, 0.00, 0.00, 0.00, 0.00, 0.00, 0.00, 0.096, 0.018, 1.028, 15:55:12.389, 1563393312389
17, 1242.15, 0.00, 0.00, 0.00, 0.00, 0.00, 0.00, 0.00, 0.000, 0.000, 0.000, 15:55:12.390, 1563393312390
18, 1233.50, 0.00, 0.00, 0.00, 0.00, 0.00, 0.00, 0.00, 0.000, 0.000, 0.000, 15:55:12.390, 1563393312390
19, 1229.30, 0.00, 0.00, 0.00, 0.00, 0.00, 0.00, 0.00, 0.000, 0.000, 0.000, 15:55:12.390, 1563393312390
20, 1236.21, 0.00, 0.00, 0.00, 0.00, 0.00, 0.00, 0.00, 0.000, 0.000, 0.000, 15:55:12.390, 1563393312390
21, 1230.98, 0.00, 0.00, 0.00, 0.00, 0.00, 0.00, 0.00, 0.000, 0.000, 0.000, 15:55:12.390, 1563393312390
22, 1233.19, 0.00, 0.00, 0.00, 0.00, 0.00, 0.00, 0.00, 0.000, 0.000, 0.000, 15:55:12.390, 1563393312390
23, 1235.58, 0.00, 0.00, 0.00, 0.00, 0.00, 0.00, 0.00, 0.000, 0.000, 0.000, 15:55:12.390, 1563393312390
24, 1227.31, 0.00, 0.00, 0.00, 0.00, 0.00, 0.00, 0.00, 0.000, 0.000, 0.000, 15:55:12.390, 1563393312390
25, 1201.59, 0.00, 0.00, 0.00, 0.00, 0.00, 0.00, 0.00, 0.000, 0.000, 0.000, 15:55:12.390, 1563393312390
26, 1179.52, 0.00, 0.00, 0.00, 0.00, 0.00, 0.00, 0.00, 0.096, 0.022, 1.026, 15:55:12.390, 1563393312390
27, 1168.62, 0.00, 0.00, 0.00, 0.00, 0.00, 0.00, 0.00, 0.000, 0.000, 0.000, 15:55:12.390, 1563393312390
28, 1188.87, 0.00, 0.00, 0.00, 0.00, 0.00, 0.00, 0.00, 0.000, 0.000, 0.000, 15:55:12.391, 1563393312391
29, 1200.98, 0.00, 0.00, 0.00, 0.00, 0.00, 0.00, 0.00, 0.000, 0.000, 0.000, 15:55:12.391, 1563393312391
30, 1191.04, 0.00, 0.00, 0.00, 0.00, 0.00, 0.00, 0.00, 0.000, 0.000, 0.000, 15:55:12.391, 1563393312391
31, 1182.16, 0.00, 0.00, 0.00, 0.00, 0.00, 0.00, 0.00, 0.000, 0.000, 0.000, 15:55:12.391, 1563393312391
32, 1183.73, 0.00, 0.00, 0.00, 0.00, 0.00, 0.00, 0.00, 0.000, 0.000, 0.000, 15:55:12.391, 1563393312391
33, 1184.06, 0.00, 0.00, 0.00, 0.00, 0.00, 0.00, 0.00, 0.000, 0.000, 0.000, 15:55:12.391, 1563393312391
34, 1169.82, 0.00, 0.00, 0.00, 0.00, 0.00, 0.00, 0.00, 0.000, 0.000, 0.000, 15:55:12.392, 1563393312392
35, 1175.84, 0.00, 0.00, 0.00, 0.00, 0.00, 0.00, 0.00, 0.000, 0.000, 0.000, 15:55:12.392, 1563393312392
36, 1185.56, 0.00, 0.00, 0.00, 0.00, 0.00, 0.00, 0.00, 0.104, 0.024, 1.026, 15:55:12.392, 1563393312392
37, 1181.85, 0.00, 0.00, 0.00, 0.00, 0.00, 0.00, 0.00, 0.000, 0.000, 0.000, 15:55:12.392, 1563393312392
38, 1176.98, 0.00, 0.00, 0.00, 0.00, 0.00, 0.00, 0.00, 0.000, 0.000, 0.000, 15:55:12.392, 1563393312392
39, 1183.73, 0.00, 0.00, 0.00, 0.00, 0.00, 0.00, 0.00, 0.000, 0.000, 0.000, 15:55:12.392, 1563393312392
40, 1186.34, 0.00, 0.00, 0.00, 0.00, 0.00, 0.00, 0.00, 0.000, 0.000, 0.000, 15:55:12.392, 1563393312392
41, 1178.63, 0.00, 0.00, 0.00, 0.00, 0.00, 0.00, 0.00, 0.000, 0.000, 0.000, 15:55:12.392, 1563393312392
42, 1179.52, 0.00, 0.00, 0.00, 0.00, 0.00, 0.00, 0.00, 0.000, 0.000, 0.000, 15:55:12.392, 1563393312392
43, 1185.56, 0.00, 0.00, 0.00, 0.00, 0.00, 0.00, 0.00, 0.000, 0.000, 0.000, 15:55:12.392, 1563393312392
44, 1202.84, 0.00, 0.00, 0.00, 0.00, 0.00, 0.00, 0.00, 0.000, 0.000, 0.000, 15:55:12.393, 1563393312393
45, 1202.03, 0.00, 0.00, 0.00, 0.00, 0.00, 0.00, 0.00, 0.000, 0.000, 0.000, 15:55:12.393, 1563393312393
46, 1198.90, 0.00, 0.00, 0.00, 0.00, 0.00, 0.00, 0.00, 0.104, 0.022, 1.024, 15:55:12.393, 1563393312393
47, 1186.83, 0.00, 0.00, 0.00, 0.00, 0.00, 0.00, 0.00, 0.000, 0.000, 0.000, 15:55:12.393, 1563393312393
48, 1192.78, 0.00, 0.00, 0.00, 0.00, 0.00, 0.00, 0.00, 0.000, 0.000, 0.000, 15:55:12.393, 1563393312393
49, 1205.16, 0.00, 0.00, 0.00, 0.00, 0.00, 0.00, 0.00, 0.000, 0.000, 0.000, 15:55:12.393, 1563393312393
50, 1210.32, 0.00, 0.00, 0.00, 0.00, 0.00, 0.00, 0.00, 0.000, 0.000, 0.000, 15:55:12.393, 1563393312393
51, 1213.45, 0.00, 0.00, 0.00, 0.00, 0.00, 0.00, 0.00, 0.000, 0.000, 0.000, 15:55:12.393, 1563393312393
52, 1217.23, 0.00, 0.00, 0.00, 0.00, 0.00, 0.00, 0.00, 0.000, 0.000, 0.000, 15:55:12.393, 1563393312393
53, 1210.44, 0.00, 0.00, 0.00, 0.00, 0.00, 0.00, 0.00, 0.000, 0.000, 0.000, 15:55:12.393, 1563393312393
54, 1186.56, 0.00, 0.00, 0.00, 0.00, 0.00, 0.00, 0.00, 0.000, 0.000, 0.000, 15:55:12.393, 1563393312393
55, 1180.78, 0.00, 0.00, 0.00, 0.00, 0.00, 0.00, 0.00, 0.000, 0.000, 0.000, 15:55:12.393, 1563393312393
56, 1167.52, 0.00, 0.00, 0.00, 0.00, 0.00, 0.00, 0.00, 0.000, 0.000, 0.000, 15:55:12.393, 1563393312393
57, 1194.32, 0.00, 0.00, 0.00, 0.00, 0.00, 0.00, 0.00, 0.098, 0.018, 1.020, 15:55:12.393, 1563393312393
58, 1195.57, 0.00, 0.00, 0.00, 0.00, 0.00, 0.00, 0.00, 0.000, 0.000, 0.000, 15:55:12.393, 1563393312393
59, 1187.41, 0.00, 0.00, 0.00, 0.00, 0.00, 0.00, 0.00, 0.000, 0.000, 0.000, 15:55:12.394, 1563393312394
60, 1173.29, 0.00, 0.00, 0.00, 0.00, 0.00, 0.00, 0.00, 0.000, 0.000, 0.000, 15:55:12.394, 1563393312394
61, 1202.10, 0.00, 0.00, 0.00, 0.00, 0.00, 0.00, 0.00, 0.000, 0.000, 0.000, 15:55:12.394, 1563393312394
62, 1200.60, 0.00, 0.00, 0.00, 0.00, 0.00, 0.00, 0.00, 0.000, 0.000, 0.000, 15:55:12.394, 1563393312394
63, 1190.72, 0.00, 0.00, 0.00, 0.00, 0.00, 0.00, 0.00, 0.000, 0.000, 0.000, 15:55:12.394, 1563393312394
64, 1186.99, 0.00, 0.00, 0.00, 0.00, 0.00, 0.00, 0.00, 0.000, 0.000, 0.000, 15:55:12.394, 1563393312394
65, 1180.40, 0.00, 0.00, 0.00, 0.00, 0.00, 0.00, 0.00, 0.000, 0.000, 0.000, 15:55:12.394, 1563393312394
66, 1158.27, 0.00, 0.00, 0.00, 0.00, 0.00, 0.00, 0.00, 0.000, 0.000, 0.000, 15:55:12.394, 1563393312394
67, 1154.22, 0.00, 0.00, 0.00, 0.00, 0.00, 0.00, 0.00, 0.102, 0.020, 1.020, 15:55:12.394, 1563393312394
68, 1151.96, 0.00, 0.00, 0.00, 0.00, 0.00, 0.00, 0.00, 0.000, 0.000, 0.000, 15:55:12.394, 1563393312394
69, 1166.49, 0.00, 0.00, 0.00, 0.00, 0.00, 0.00, 0.00, 0.000, 0.000, 0.000, 15:55:12.394, 1563393312394
70, 1193.31, 0.00, 0.00, 0.00, 0.00, 0.00, 0.00, 0.00, 0.000, 0.000, 0.000, 15:55:12.394, 1563393312394
71, 1182.25, 0.00, 0.00, 0.00, 0.00, 0.00, 0.00, 0.00, 0.000, 0.000, 0.000, 15:55:12.394, 1563393312394
72, 1179.30, 0.00, 0.00, 0.00, 0.00, 0.00, 0.00, 0.00, 0.000, 0.000, 0.000, 15:55:12.394, 1563393312394
73, 1178.29, 0.00, 0.00, 0.00, 0.00, 0.00, 0.00, 0.00, 0.000, 0.000, 0.000, 15:55:12.394, 1563393312394
74, 1190.34, 0.00, 0.00, 0.00, 0.00, 0.00, 0.00, 0.00, 0.000, 0.000, 0.000, 15:55:12.394, 1563393312394
75, 1186.45, 0.00, 0.00, 0.00, 0.00, 0.00, 0.00, 0.00, 0.000, 0.000, 0.000, 15:55:12.395, 1563393312395
76, 1166.96, 0.00, 0.00, 0.00, 0.00, 0.00, 0.00, 0.00, 0.000, 0.000, 0.000, 15:55:12.395, 1563393312395
77, 1161.78, 0.00, 0.00, 0.00, 0.00, 0.00, 0.00, 0.00, 0.104, 0.024, 1.026, 15:55:12.395, 1563393312395
78, 1170.85, 0.00, 0.00, 0.00, 0.00, 0.00, 0.00, 0.00, 0.000, 0.000, 0.000, 15:55:12.395, 1563393312395
79, 1181.49, 0.00, 0.00, 0.00, 0.00, 0.00, 0.00, 0.00, 0.000, 0.000, 0.000, 15:55:12.395, 1563393312395
80, 1185.78, 0.00, 0.00, 0.00, 0.00, 0.00, 0.00, 0.00, 0.000, 0.000, 0.000, 15:55:12.395, 1563393312395
81, 1181.33, 0.00, 0.00, 0.00, 0.00, 0.00, 0.00, 0.00, 0.000, 0.000, 0.000, 15:55:12.395, 1563393312395
82, 1182.52, 0.00, 0.00, 0.00, 0.00, 0.00, 0.00, 0.00, 0.000, 0.000, 0.000, 15:55:12.395, 1563393312395
83, 1173.89, 0.00, 0.00, 0.00, 0.00, 0.00, 0.00, 0.00, 0.000, 0.000, 0.000, 15:55:12.395, 1563393312395
84, 1169.51, 0.00, 0.00, 0.00, 0.00, 0.00, 0.00, 0.00, 0.000, 0.000, 0.000, 15:55:12.395, 1563393312395
85, 1184.69, 0.00, 0.00, 0.00, 0.00, 0.00, 0.00, 0.00, 0.000, 0.000, 0.000, 15:55:12.395, 1563393312395
86, 1207.84, 0.00, 0.00, 0.00, 0.00, 0.00, 0.00, 0.00, 0.000, 0.000, 0.000, 15:55:12.395, 1563393312395
87, 1200.89, 0.00, 0.00, 0.00, 0.00, 0.00, 0.00, 0.00, 0.104, 0.022, 1.020, 15:55:12.395, 1563393312395
88, 1171.05, 0.00, 0.00, 0.00, 0.00, 0.00, 0.00, 0.00, 0.000, 0.000, 0.000, 15:55:12.395, 1563393312395
89, 1176.28, 0.00, 0.00, 0.00, 0.00, 0.00, 0.00, 0.00, 0.000, 0.000, 0.000, 15:55:12.395, 1563393312395
90, 1177.02, 0.00, 0.00, 0.00, 0.00, 0.00, 0.00, 0.00, 0.000, 0.000, 0.000, 15:55:12.395, 1563393312395
91, 1170.29, 0.00, 0.00, 0.00, 0.00, 0.00, 0.00, 0.00, 0.000, 0.000, 0.000, 15:55:12.395, 1563393312395
92, 1163.52, 0.00, 0.00, 0.00, 0.00, 0.00, 0.00, 0.00, 0.000, 0.000, 0.000, 15:55:12.395, 1563393312395
93, 1168.12, 0.00, 0.00, 0.00, 0.00, 0.00, 0.00, 0.00, 0.000, 0.000, 0.000, 15:55:12.395, 1563393312395
94, 1170.49, 0.00, 0.00, 0.00, 0.00, 0.00, 0.00, 0.00, 0.000, 0.000, 0.000, 15:55:12.395, 1563393312395
95, 1175.28, 0.00, 0.00, 0.00, 0.00, 0.00, 0.00, 0.00, 0.000, 0.000, 0.000, 15:55:12.395, 1563393312395
96, 1179.37, 0.00, 0.00, 0.00, 0.00, 0.00, 0.00, 0.00, 0.000, 0.000, 0.000, 15:55:12.395, 1563393312395
97, 1158.31, 0.00, 0.00, 0.00, 0.00, 0.00, 0.00, 0.00, 0.108, 0.018, 1.020, 15:55:12.396, 1563393312396
98, 1167.45, 0.00, 0.00, 0.00, 0.00, 0.00, 0.00, 0.00, 0.000, 0.000, 0.000, 15:55:12.396, 1563393312396
99, 1183.82, 0.00, 0.00, 0.00, 0.00, 0.00, 0.00, 0.00, 0.000, 0.000, 0.000, 15:55:12.396, 1563393312396
100, 1172.77, 0.00, 0.00, 0.00, 0.00, 0.00, 0.00, 0.00, 0.000, 0.000, 0.000, 15:55:12.396, 1563393312396
101, 1171.43, 0.00, 0.00, 0.00, 0.00, 0.00, 0.00, 0.00, 0.000, 0.000, 0.000, 15:55:12.396, 1563393312396
102, 1167.63, 0.00, 0.00, 0.00, 0.00, 0.00, 0.00, 0.00, 0.000, 0.000, 0.000, 15:55:12.396, 1563393312396
103, 1176.17, 0.00, 0.00, 0.00, 0.00, 0.00, 0.00, 0.00, 0.000, 0.000, 0.000, 15:55:12.396, 1563393312396
104, 1174.65, 0.00, 0.00, 0.00, 0.00, 0.00, 0.00, 0.00, 0.000, 0.000, 0.000, 15:55:12.396, 1563393312396
105, 1171.12, 0.00, 0.00, 0.00, 0.00, 0.00, 0.00, 0.00, 0.000, 0.000, 0.000, 15:55:12.852, 1563393312852
106, 1177.91, 0.00, 0.00, 0.00, 0.00, 0.00, 0.00, 0.00, 0.000, 0.000, 0.000, 15:55:12.852, 1563393312852
107, 1163.18, 0.00, 0.00, 0.00, 0.00, 0.00, 0.00, 0.00, 0.000, 0.000, 0.000, 15:55:12.852, 1563393312852
108, 1170.65, 0.00, 0.00, 0.00, 0.00, 0.00, 0.00, 0.00, 0.106, 0.020, 1.024, 15:55:12.852, 1563393312852
109, 1169.42, 0.00, 0.00, 0.00, 0.00, 0.00, 0.00, 0.00, 0.000, 0.000, 0.000, 15:55:12.853, 1563393312853
110, 1174.09, 0.00, 0.00, 0.00, 0.00, 0.00, 0.00, 0.00, 0.000, 0.000, 0.000, 15:55:12.853, 1563393312853
111, 1163.14, 0.00, 0.00, 0.00, 0.00, 0.00, 0.00, 0.00, 0.000, 0.000, 0.000, 15:55:12.853, 1563393312853
112, 1166.00, 0.00, 0.00, 0.00, 0.00, 0.00, 0.00, 0.00, 0.000, 0.000, 0.000, 15:55:12.853, 1563393312853
113, 1160.61, 0.00, 0.00, 0.00, 0.00, 0.00, 0.00, 0.00, 0.000, 0.000, 0.000, 15:55:12.853, 1563393312853
114, 1168.28, 0.00, 0.00, 0.00, 0.00, 0.00, 0.00, 0.00, 0.000, 0.000, 0.000, 15:55:12.853, 1563393312853
115, 1182.03, 0.00, 0.00, 0.00, 0.00, 0.00, 0.00, 0.00, 0.000, 0.000, 0.000, 15:55:12.853, 1563393312853
116, 1163.77, 0.00, 0.00, 0.00, 0.00, 0.00, 0.00, 0.00, 0.000, 0.000, 0.000, 15:55:12.853, 1563393312853
117, 1164.28, 0.00, 0.00, 0.00, 0.00, 0.00, 0.00, 0.00, 0.000, 0.000, 0.000, 15:55:12.853, 1563393312853
118, 1138.66, 0.00, 0.00, 0.00, 0.00, 0.00, 0.00, 0.00, 0.114, 0.020, 1.030, 15:55:12.853, 1563393312853
119, 1150.85, 0.00, 0.00, 0.00, 0.00, 0.00, 0.00, 0.00, 0.000, 0.000, 0.000, 15:55:12.853, 1563393312853
120, 1185.54, 0.00, 0.00, 0.00, 0.00, 0.00, 0.00, 0.00, 0.000, 0.000, 0.000, 15:55:12.853, 1563393312853
121, 1174.47, 0.00, 0.00, 0.00, 0.00, 0.00, 0.00, 0.00, 0.000, 0.000, 0.000, 15:55:12.853, 1563393312853
122, 1177.78, 0.00, 0.00, 0.00, 0.00, 0.00, 0.00, 0.00, 0.000, 0.000, 0.000, 15:55:12.853, 1563393312853
123, 1162.13, 0.00, 0.00, 0.00, 0.00, 0.00, 0.00, 0.00, 0.000, 0.000, 0.000, 15:55:12.853, 1563393312853
124, 1158.00, 0.00, 0.00, 0.00, 0.00, 0.00, 0.00, 0.00, 0.000, 0.000, 0.000, 15:55:12.854, 1563393312854
125, 1158.58, 0.00, 0.00, 0.00, 0.00, 0.00, 0.00, 0.00, 0.000, 0.000, 0.000, 15:55:12.854, 1563393312854
126, 1148.83, 0.00, 0.00, 0.00, 0.00, 0.00, 0.00, 0.00, 0.000, 0.000, 0.000, 15:55:12.854, 1563393312854
127, 1146.94, 0.00, 0.00, 0.00, 0.00, 0.00, 0.00, 0.00, 0.000, 0.000, 0.000, 15:55:12.854, 1563393312854
128, 1152.97, 0.00, 0.00, 0.00, 0.00, 0.00, 0.00, 0.00, 0.108, 0.016, 1.028, 15:55:12.854, 1563393312854
129, 1160.66, 0.00, 0.00, 0.00, 0.00, 0.00, 0.00, 0.00, 0.000, 0.000, 0.000, 15:55:12.854, 1563393312854
130, 1158.76, 0.00, 0.00, 0.00, 0.00, 0.00, 0.00, 0.00, 0.000, 0.000, 0.000, 15:55:12.854, 1563393312854
131, 1167.23, 0.00, 0.00, 0.00, 0.00, 0.00, 0.00, 0.00, 0.000, 0.000, 0.000, 15:55:12.854, 1563393312854
132, 1181.38, 0.00, 0.00, 0.00, 0.00, 0.00, 0.00, 0.00, 0.000, 0.000, 0.000, 15:55:12.854, 1563393312854
133, 1170.49, 0.00, 0.00, 0.00, 0.00, 0.00, 0.00, 0.00, 0.000, 0.000, 0.000, 15:55:12.854, 1563393312854
134, 1150.20, 0.00, 0.00, 0.00, 0.00, 0.00, 0.00, 0.00, 0.000, 0.000, 0.000, 15:55:12.854, 1563393312854
135, 1145.73, 0.00, 0.00, 0.00, 0.00, 0.00, 0.00, 0.00, 0.000, 0.000, 0.000, 15:55:12.854, 1563393312854
136, 1124.85, 0.00, 0.00, 0.00, 0.00, 0.00, 0.00, 0.00, 0.000, 0.000, 0.000, 15:55:12.854, 1563393312854
137, 1139.27, 0.00, 0.00, 0.00, 0.00, 0.00, 0.00, 0.00, 0.000, 0.000, 0.000, 15:55:12.854, 1563393312854
138, 1149.04, 0.00, 0.00, 0.00, 0.00, 0.00, 0.00, 0.00, 0.108, 0.018, 1.028, 15:55:12.854, 1563393312854
139, 1165.00, 0.00, 0.00, 0.00, 0.00, 0.00, 0.00, 0.00, 0.000, 0.000, 0.000, 15:55:12.854, 1563393312854
140, 1157.86, 0.00, 0.00, 0.00, 0.00, 0.00, 0.00, 0.00, 0.000, 0.000, 0.000, 15:55:12.855, 1563393312855
141, 1149.75, 0.00, 0.00, 0.00, 0.00, 0.00, 0.00, 0.00, 0.000, 0.000, 0.000, 15:55:12.855, 1563393312855
142, 1138.13, 0.00, 0.00, 0.00, 0.00, 0.00, 0.00, 0.00, 0.000, 0.000, 0.000, 15:55:12.855, 1563393312855
143, 1128.00, 0.00, 0.00, 0.00, 0.00, 0.00, 0.00, 0.00, 0.000, 0.000, 0.000, 15:55:12.855, 1563393312855
144, 1142.42, 0.00, 0.00, 0.00, 0.00, 0.00, 0.00, 0.00, 0.000, 0.000, 0.000, 15:55:12.855, 1563393312855
145, 1160.06, 0.00, 0.00, 0.00, 0.00, 0.00, 0.00, 0.00, 0.000, 0.000, 0.000, 15:55:12.855, 1563393312855
146, 1152.61, 0.00, 0.00, 0.00, 0.00, 0.00, 0.00, 0.00, 0.000, 0.000, 0.000, 15:55:12.855, 1563393312855
147, 1166.40, 0.00, 0.00, 0.00, 0.00, 0.00, 0.00, 0.00, 0.000, 0.000, 0.000, 15:55:12.855, 1563393312855
148, 1176.28, 0.00, 0.00, 0.00, 0.00, 0.00, 0.00, 0.00, 0.108, 0.022, 1.028, 15:55:12.855, 1563393312855
149, 1168.12, 0.00, 0.00, 0.00, 0.00, 0.00, 0.00, 0.00, 0.000, 0.000, 0.000, 15:55:12.856, 1563393312856
150, 1135.38, 0.00, 0.00, 0.00, 0.00, 0.00, 0.00, 0.00, 0.000, 0.000, 0.000, 15:55:12.856, 1563393312856
151, 1125.39, 0.00, 0.00, 0.00, 0.00, 0.00, 0.00, 0.00, 0.000, 0.000, 0.000, 15:55:12.856, 1563393312856
152, 1129.48, 0.00, 0.00, 0.00, 0.00, 0.00, 0.00, 0.00, 0.000, 0.000, 0.000, 15:55:12.856, 1563393312856
153, 1149.42, 0.00, 0.00, 0.00, 0.00, 0.00, 0.00, 0.00, 0.000, 0.000, 0.000, 15:55:12.856, 1563393312856
154, 1144.03, 0.00, 0.00, 0.00, 0.00, 0.00, 0.00, 0.00, 0.000, 0.000, 0.000, 15:55:12.856, 1563393312856
155, 1132.16, 0.00, 0.00, 0.00, 0.00, 0.00, 0.00, 0.00, 0.000, 0.000, 0.000, 15:55:12.856, 1563393312856
156, 1137.08, 0.00, 0.00, 0.00, 0.00, 0.00, 0.00, 0.00, 0.000, 0.000, 0.000, 15:55:12.856, 1563393312856
157, 1147.11, 0.00, 0.00, 0.00, 0.00, 0.00, 0.00, 0.00, 0.000, 0.000, 0.000, 15:55:12.856, 1563393312856
158, 1159.30, 0.00, 0.00, 0.00, 0.00, 0.00, 0.00, 0.00, 0.110, 0.026, 1.036, 15:55:12.856, 1563393312856
159, 1152.99, 0.00, 0.00, 0.00, 0.00, 0.00, 0.00, 0.00, 0.000, 0.000, 0.000, 15:55:12.856, 1563393312856
160, 1151.63, 0.00, 0.00, 0.00, 0.00, 0.00, 0.00, 0.00, 0.000, 0.000, 0.000, 15:55:12.856, 1563393312856
161, 1155.27, 0.00, 0.00, 0.00, 0.00, 0.00, 0.00, 0.00, 0.000, 0.000, 0.000, 15:55:12.856, 1563393312856
162, 1149.84, 0.00, 0.00, 0.00, 0.00, 0.00, 0.00, 0.00, 0.000, 0.000, 0.000, 15:55:12.856, 1563393312856
163, 1145.50, 0.00, 0.00, 0.00, 0.00, 0.00, 0.00, 0.00, 0.000, 0.000, 0.000, 15:55:12.856, 1563393312856
164, 1143.60, 0.00, 0.00, 0.00, 0.00, 0.00, 0.00, 0.00, 0.000, 0.000, 0.000, 15:55:12.856, 1563393312856
165, 1150.15, 0.00, 0.00, 0.00, 0.00, 0.00, 0.00, 0.00, 0.000, 0.000, 0.000, 15:55:12.857, 1563393312857
166, 1153.10, 0.00, 0.00, 0.00, 0.00, 0.00, 0.00, 0.00, 0.000, 0.000, 0.000, 15:55:12.857, 1563393312857
167, 1146.89, 0.00, 0.00, 0.00, 0.00, 0.00, 0.00, 0.00, 0.000, 0.000, 0.000, 15:55:12.857, 1563393312857
168, 1138.24, 0.00, 0.00, 0.00, 0.00, 0.00, 0.00, 0.00, 0.000, 0.000, 0.000, 15:55:12.857, 1563393312857
169, 1161.42, 0.00, 0.00, 0.00, 0.00, 0.00, 0.00, 0.00, 0.108, 0.028, 1.034, 15:55:12.857, 1563393312857
170, 1186.01, 0.00, 0.00, 0.00, 0.00, 0.00, 0.00, 0.00, 0.000, 0.000, 0.000, 15:55:12.858, 1563393312858
171, 1161.53, 0.00, 0.00, 0.00, 0.00, 0.00, 0.00, 0.00, 0.000, 0.000, 0.000, 15:55:12.858, 1563393312858
172, 1143.69, 0.00, 0.00, 0.00, 0.00, 0.00, 0.00, 0.00, 0.000, 0.000, 0.000, 15:55:12.858, 1563393312858
173, 1123.29, 0.00, 0.00, 0.00, 0.00, 0.00, 0.00, 0.00, 0.000, 0.000, 0.000, 15:55:12.858, 1563393312858
174, 1134.11, 0.00, 0.00, 0.00, 0.00, 0.00, 0.00, 0.00, 0.000, 0.000, 0.000, 15:55:12.858, 1563393312858
175, 1147.36, 0.00, 0.00, 0.00, 0.00, 0.00, 0.00, 0.00, 0.000, 0.000, 0.000, 15:55:12.858, 1563393312858
176, 1130.71, 0.00, 0.00, 0.00, 0.00, 0.00, 0.00, 0.00, 0.000, 0.000, 0.000, 15:55:12.858, 1563393312858
177, 1128.00, 0.00, 0.00, 0.00, 0.00, 0.00, 0.00, 0.00, 0.000, 0.000, 0.000, 15:55:12.858, 1563393312858
178, 1147.99, 0.00, 0.00, 0.00, 0.00, 0.00, 0.00, 0.00, 0.000, 0.000, 0.000, 15:55:12.858, 1563393312858
179, 1140.97, 0.00, 0.00, 0.00, 0.00, 0.00, 0.00, 0.00, 0.106, 0.024, 1.036, 15:55:12.858, 1563393312858
180, 1151.74, 0.00, 0.00, 0.00, 0.00, 0.00, 0.00, 0.00, 0.000, 0.000, 0.000, 15:55:12.858, 1563393312858
181, 1168.30, 0.00, 0.00, 0.00, 0.00, 0.00, 0.00, 0.00, 0.000, 0.000, 0.000, 15:55:12.858, 1563393312858
182, 1172.44, 0.00, 0.00, 0.00, 0.00, 0.00, 0.00, 0.00, 0.000, 0.000, 0.000, 15:55:12.858, 1563393312858
183, 1156.35, 0.00, 0.00, 0.00, 0.00, 0.00, 0.00, 0.00, 0.000, 0.000, 0.000, 15:55:12.858, 1563393312858
184, 1149.51, 0.00, 0.00, 0.00, 0.00, 0.00, 0.00, 0.00, 0.000, 0.000, 0.000, 15:55:12.858, 1563393312858
185, 1141.91, 0.00, 0.00, 0.00, 0.00, 0.00, 0.00, 0.00, 0.000, 0.000, 0.000, 15:55:12.859, 1563393312859
186, 1163.72, 0.00, 0.00, 0.00, 0.00, 0.00, 0.00, 0.00, 0.000, 0.000, 0.000, 15:55:12.859, 1563393312859
187, 1161.60, 0.00, 0.00, 0.00, 0.00, 0.00, 0.00, 0.00, 0.000, 0.000, 0.000, 15:55:12.859, 1563393312859
188, 1150.06, 0.00, 0.00, 0.00, 0.00, 0.00, 0.00, 0.00, 0.000, 0.000, 0.000, 15:55:12.859, 1563393312859
189, 1135.22, 0.00, 0.00, 0.00, 0.00, 0.00, 0.00, 0.00, 0.106, 0.028, 1.026, 15:55:12.860, 1563393312860
190, 1132.25, 0.00, 0.00, 0.00, 0.00, 0.00, 0.00, 0.00, 0.000, 0.000, 0.000, 15:55:12.860, 1563393312860
191, 1131.29, 0.00, 0.00, 0.00, 0.00, 0.00, 0.00, 0.00, 0.000, 0.000, 0.000, 15:55:12.860, 1563393312860
192, 1133.81, 0.00, 0.00, 0.00, 0.00, 0.00, 0.00, 0.00, 0.000, 0.000, 0.000, 15:55:12.860, 1563393312860
193, 1145.44, 0.00, 0.00, 0.00, 0.00, 0.00, 0.00, 0.00, 0.000, 0.000, 0.000, 15:55:12.860, 1563393312860
194, 1148.10, 0.00, 0.00, 0.00, 0.00, 0.00, 0.00, 0.00, 0.000, 0.000, 0.000, 15:55:12.860, 1563393312860
195, 1151.99, 0.00, 0.00, 0.00, 0.00, 0.00, 0.00, 0.00, 0.000, 0.000, 0.000, 15:55:12.860, 1563393312860
196, 1141.59, 0.00, 0.00, 0.00, 0.00, 0.00, 0.00, 0.00, 0.000, 0.000, 0.000, 15:55:12.860, 1563393312860
197, 1119.78, 0.00, 0.00, 0.00, 0.00, 0.00, 0.00, 0.00, 0.000, 0.000, 0.000, 15:55:12.860, 1563393312860
198, 1150.33, 0.00, 0.00, 0.00, 0.00, 0.00, 0.00, 0.00, 0.000, 0.000, 0.000, 15:55:12.860, 1563393312860
199, 1156.23, 0.00, 0.00, 0.00, 0.00, 0.00, 0.00, 0.00, 0.110, 0.024, 1.030, 15:55:12.860, 1563393312860
200, 1133.12, 0.00, 0.00, 0.00, 0.00, 0.00, 0.00, 0.00, 0.000, 0.000, 0.000, 15:55:12.860, 1563393312860
201, 1112.36, 0.00, 0.00, 0.00, 0.00, 0.00, 0.00, 0.00, 0.000, 0.000, 0.000, 15:55:12.861, 1563393312861
202, 1114.73, 0.00, 0.00, 0.00, 0.00, 0.00, 0.00, 0.00, 0.000, 0.000, 0.000, 15:55:12.861, 1563393312861
203, 1128.70, 0.00, 0.00, 0.00, 0.00, 0.00, 0.00, 0.00, 0.000, 0.000, 0.000, 15:55:12.861, 1563393312861
204, 1145.48, 0.00, 0.00, 0.00, 0.00, 0.00, 0.00, 0.00, 0.000, 0.000, 0.000, 15:55:12.861, 1563393312861
205, 1151.07, 0.00, 0.00, 0.00, 0.00, 0.00, 0.00, 0.00, 0.000, 0.000, 0.000, 15:55:12.861, 1563393312861
206, 1138.82, 0.00, 0.00, 0.00, 0.00, 0.00, 0.00, 0.00, 0.000, 0.000, 0.000, 15:55:12.861, 1563393312861
207, 1150.02, 0.00, 0.00, 0.00, 0.00, 0.00, 0.00, 0.00, 0.000, 0.000, 0.000, 15:55:12.861, 1563393312861
208, 1129.59, 0.00, 0.00, 0.00, 0.00, 0.00, 0.00, 0.00, 0.000, 0.000, 0.000, 15:55:12.861, 1563393312861
209, 1120.36, 0.00, 0.00, 0.00, 0.00, 0.00, 0.00, 0.00, 0.106, 0.020, 1.028, 15:55:12.861, 1563393312861
210, 1121.77, 0.00, 0.00, 0.00, 0.00, 0.00, 0.00, 0.00, 0.000, 0.000, 0.000, 15:55:12.861, 1563393312861
211, 1131.85, 0.00, 0.00, 0.00, 0.00, 0.00, 0.00, 0.00, 0.000, 0.000, 0.000, 15:55:12.861, 1563393312861
212, 1149.28, 0.00, 0.00, 0.00, 0.00, 0.00, 0.00, 0.00, 0.000, 0.000, 0.000, 15:55:12.861, 1563393312861
213, 1135.67, 0.00, 0.00, 0.00, 0.00, 0.00, 0.00, 0.00, 0.000, 0.000, 0.000, 15:55:12.861, 1563393312861
214, 1136.54, 0.00, 0.00, 0.00, 0.00, 0.00, 0.00, 0.00, 0.000, 0.000, 0.000, 15:55:12.861, 1563393312861
215, 1141.55, 0.00, 0.00, 0.00, 0.00, 0.00, 0.00, 0.00, 0.000, 0.000, 0.000, 15:55:12.861, 1563393312861
216, 1138.28, 0.00, 0.00, 0.00, 0.00, 0.00, 0.00, 0.00, 0.000, 0.000, 0.000, 15:55:12.861, 1563393312861
217, 1122.68, 0.00, 0.00, 0.00, 0.00, 0.00, 0.00, 0.00, 0.000, 0.000, 0.000, 15:55:12.861, 1563393312861
218, 1113.07, 0.00, 0.00, 0.00, 0.00, 0.00, 0.00, 0.00, 0.000, 0.000, 0.000, 15:55:12.861, 1563393312861
219, 1132.16, 0.00, 0.00, 0.00, 0.00, 0.00, 0.00, 0.00, 0.000, 0.000, 0.000, 15:55:12.861, 1563393312861
220, 1152.48, 0.00, 0.00, 0.00, 0.00, 0.00, 0.00, 0.00, 0.100, 0.020, 1.016, 15:55:12.861, 1563393312861
221, 1130.95, 0.00, 0.00, 0.00, 0.00, 0.00, 0.00, 0.00, 0.000, 0.000, 0.000, 15:55:12.861, 1563393312861
222, 1120.94, 0.00, 0.00, 0.00, 0.00, 0.00, 0.00, 0.00, 0.000, 0.000, 0.000, 15:55:12.861, 1563393312861
223, 1126.66, 0.00, 0.00, 0.00, 0.00, 0.00, 0.00, 0.00, 0.000, 0.000, 0.000, 15:55:12.861, 1563393312861
224, 1147.09, 0.00, 0.00, 0.00, 0.00, 0.00, 0.00, 0.00, 0.000, 0.000, 0.000, 15:55:12.862, 1563393312862
225, 1144.12, 0.00, 0.00, 0.00, 0.00, 0.00, 0.00, 0.00, 0.000, 0.000, 0.000, 15:55:13.332, 1563393313332
226, 1128.90, 0.00, 0.00, 0.00, 0.00, 0.00, 0.00, 0.00, 0.000, 0.000, 0.000, 15:55:13.332, 1563393313332
227, 1105.47, 0.00, 0.00, 0.00, 0.00, 0.00, 0.00, 0.00, 0.000, 0.000, 0.000, 15:55:13.332, 1563393313332
228, 1114.01, 0.00, 0.00, 0.00, 0.00, 0.00, 0.00, 0.00, 0.000, 0.000, 0.000, 15:55:13.332, 1563393313332
229, 1124.87, 0.00, 0.00, 0.00, 0.00, 0.00, 0.00, 0.00, 0.000, 0.000, 0.000, 15:55:13.332, 1563393313332
230, 1107.26, 0.00, 0.00, 0.00, 0.00, 0.00, 0.00, 0.00, 0.104, 0.016, 1.024, 15:55:13.332, 1563393313332
231, 1106.23, 0.00, 0.00, 0.00, 0.00, 0.00, 0.00, 0.00, 0.000, 0.000, 0.000, 15:55:13.332, 1563393313332
232, 1106.52, 0.00, 0.00, 0.00, 0.00, 0.00, 0.00, 0.00, 0.000, 0.000, 0.000, 15:55:13.332, 1563393313332
233, 1113.99, 0.00, 0.00, 0.00, 0.00, 0.00, 0.00, 0.00, 0.000, 0.000, 0.000, 15:55:13.332, 1563393313332
234, 1107.15, 0.00, 0.00, 0.00, 0.00, 0.00, 0.00, 0.00, 0.000, 0.000, 0.000, 15:55:13.332, 1563393313332
235, 1095.70, 0.00, 0.00, 0.00, 0.00, 0.00, 0.00, 0.00, 0.000, 0.000, 0.000, 15:55:13.332, 1563393313332
236, 1129.21, 0.00, 0.00, 0.00, 0.00, 0.00, 0.00, 0.00, 0.000, 0.000, 0.000, 15:55:13.332, 1563393313332
237, 1145.37, 0.00, 0.00, 0.00, 0.00, 0.00, 0.00, 0.00, 0.000, 0.000, 0.000, 15:55:13.332, 1563393313332
238, 1122.48, 0.00, 0.00, 0.00, 0.00, 0.00, 0.00, 0.00, 0.000, 0.000, 0.000, 15:55:13.332, 1563393313332
239, 1113.47, 0.00, 0.00, 0.00, 0.00, 0.00, 0.00, 0.00, 0.000, 0.000, 0.000, 15:55:13.332, 1563393313332
240, 1128.90, 0.00, 0.00, 0.00, 0.00, 0.00, 0.00, 0.00, 0.094, 0.016, 1.026, 15:55:13.332, 1563393313332
241, 1120.87, 0.00, 0.00, 0.00, 0.00, 0.00, 0.00, 0.00, 0.000, 0.000, 0.000, 15:55:13.332, 1563393313332
242, 1114.26, 0.00, 0.00, 0.00, 0.00, 0.00, 0.00, 0.00, 0.000, 0.000, 0.000, 15:55:13.333, 1563393313333
243, 1099.21, 0.00, 0.00, 0.00, 0.00, 0.00, 0.00, 0.00, 0.000, 0.000, 0.000, 15:55:13.333, 1563393313333
244, 1100.15, 0.00, 0.00, 0.00, 0.00, 0.00, 0.00, 0.00, 0.000, 0.000, 0.000, 15:55:13.333, 1563393313333
245, 1106.88, 0.00, 0.00, 0.00, 0.00, 0.00, 0.00, 0.00, 0.000, 0.000, 0.000, 15:55:13.333, 1563393313333
246, 1105.65, 0.00, 0.00, 0.00, 0.00, 0.00, 0.00, 0.00, 0.000, 0.000, 0.000, 15:55:13.333, 1563393313333
247, 1095.15, 0.00, 0.00, 0.00, 0.00, 0.00, 0.00, 0.00, 0.000, 0.000, 0.000, 15:55:13.333, 1563393313333
248, 1112.98, 0.00, 0.00, 0.00, 0.00, 0.00, 0.00, 0.00, 0.000, 0.000, 0.000, 15:55:13.333, 1563393313333
249, 1144.59, 0.00, 0.00, 0.00, 0.00, 0.00, 0.00, 0.00, 0.000, 0.000, 0.000, 15:55:13.333, 1563393313333
250, 1112.96, 0.00, 0.00, 0.00, 0.00, 0.00, 0.00, 0.00, 0.096, 0.016, 1.026, 15:55:13.333, 1563393313333
251, 1080.62, 0.00, 0.00, 0.00, 0.00, 0.00, 0.00, 0.00, 0.000, 0.000, 0.000, 15:55:13.333, 1563393313333
252, 1075.12, 0.00, 0.00, 0.00, 0.00, 0.00, 0.00, 0.00, 0.000, 0.000, 0.000, 15:55:13.333, 1563393313333
253, 1110.30, 0.00, 0.00, 0.00, 0.00, 0.00, 0.00, 0.00, 0.000, 0.000, 0.000, 15:55:13.333, 1563393313333
254, 1110.61, 0.00, 0.00, 0.00, 0.00, 0.00, 0.00, 0.00, 0.000, 0.000, 0.000, 15:55:13.333, 1563393313333
255, 1063.99, 0.00, 0.00, 0.00, 0.00, 0.00, 0.00, 0.00, 0.000, 0.000, 0.000, 15:55:13.333, 1563393313333
0, 1055.54, 0.00, 0.00, 0.00, 0.00, 0.00, 0.00, 0.00, 0.000, 0.000, 0.000, 15:55:13.333, 1563393313333
1, 1104.98, 0.00, 0.00, 0.00, 0.00, 0.00, 0.00, 0.00, 0.000, 0.000, 0.000, 15:55:13.333, 1563393313333
2, 1088.44, 0.00, 0.00, 0.00, 0.00, 0.00, 0.00, 0.00, 0.000, 0.000, 0.000, 15:55:13.333, 1563393313333
3, 1071.50, 0.00, 0.00, 0.00, 0.00, 0.00, 0.00, 0.00, 0.000, 0.000, 0.000, 15:55:13.333, 1563393313333
4, 1063.67, 0.00, 0.00, 0.00, 0.00, 0.00, 0.00, 0.00, 0.092, 0.022, 1.024, 15:55:13.333, 1563393313333
5, 1066.94, 0.00, 0.00, 0.00, 0.00, 0.00, 0.00, 0.00, 0.000, 0.000, 0.000, 15:55:13.334, 1563393313334
6, 1079.99, 0.00, 0.00, 0.00, 0.00, 0.00, 0.00, 0.00, 0.000, 0.000, 0.000, 15:55:13.334, 1563393313334
7, 1088.24, 0.00, 0.00, 0.00, 0.00, 0.00, 0.00, 0.00, 0.000, 0.000, 0.000, 15:55:13.334, 1563393313334
8, 1092.98, 0.00, 0.00, 0.00, 0.00, 0.00, 0.00, 0.00, 0.000, 0.000, 0.000, 15:55:13.334, 1563393313334
9, 1093.74, 0.00, 0.00, 0.00, 0.00, 0.00, 0.00, 0.00, 0.000, 0.000, 0.000, 15:55:13.334, 1563393313334
10, 1095.88, 0.00, 0.00, 0.00, 0.00, 0.00, 0.00, 0.00, 0.000, 0.000, 0.000, 15:55:13.335, 1563393313335
11, 1083.93, 0.00, 0.00, 0.00, 0.00, 0.00, 0.00, 0.00, 0.000, 0.000, 0.000, 15:55:13.335, 1563393313335
12, 1071.74, 0.00, 0.00, 0.00, 0.00, 0.00, 0.00, 0.00, 0.000, 0.000, 0.000, 15:55:13.335, 1563393313335
13, 1078.38, 0.00, 0.00, 0.00, 0.00, 0.00, 0.00, 0.00, 0.000, 0.000, 0.000, 15:55:13.335, 1563393313335
14, 1093.74, 0.00, 0.00, 0.00, 0.00, 0.00, 0.00, 0.00, 0.000, 0.000, 0.000, 15:55:13.335, 1563393313335
15, 1087.93, 0.00, 0.00, 0.00, 0.00, 0.00, 0.00, 0.00, 0.100, 0.026, 1.016, 15:55:13.335, 1563393313335
16, 1087.88, 0.00, 0.00, 0.00, 0.00, 0.00, 0.00, 0.00, 0.000, 0.000, 0.000, 15:55:13.335, 1563393313335
17, 1093.60, 0.00, 0.00, 0.00, 0.00, 0.00, 0.00, 0.00, 0.000, 0.000, 0.000, 15:55:13.335, 1563393313335
18, 1111.62, 0.00, 0.00, 0.00, 0.00, 0.00, 0.00, 0.00, 0.000, 0.000, 0.000, 15:55:13.335, 1563393313335
19, 1098.57, 0.00, 0.00, 0.00, 0.00, 0.00, 0.00, 0.00, 0.000, 0.000, 0.000, 15:55:13.335, 1563393313335
20, 1078.29, 0.00, 0.00, 0.00, 0.00, 0.00, 0.00, 0.00, 0.000, 0.000, 0.000, 15:55:13.335, 1563393313335
21, 1084.86, 0.00, 0.00, 0.00, 0.00, 0.00, 0.00, 0.00, 0.000, 0.000, 0.000, 15:55:13.335, 1563393313335
22, 1096.69, 0.00, 0.00, 0.00, 0.00, 0.00, 0.00, 0.00, 0.000, 0.000, 0.000, 15:55:13.335, 1563393313335
23, 1114.66, 0.00, 0.00, 0.00, 0.00, 0.00, 0.00, 0.00, 0.000, 0.000, 0.000, 15:55:13.335, 1563393313335
24, 1105.29, 0.00, 0.00, 0.00, 0.00, 0.00, 0.00, 0.00, 0.000, 0.000, 0.000, 15:55:13.335, 1563393313335
25, 1098.90, 0.00, 0.00, 0.00, 0.00, 0.00, 0.00, 0.00, 0.098, 0.024, 1.022, 15:55:13.335, 1563393313335
26, 1105.52, 0.00, 0.00, 0.00, 0.00, 0.00, 0.00, 0.00, 0.000, 0.000, 0.000, 15:55:13.336, 1563393313336
27, 1106.46, 0.00, 0.00, 0.00, 0.00, 0.00, 0.00, 0.00, 0.000, 0.000, 0.000, 15:55:13.336, 1563393313336
28, 1076.01, 0.00, 0.00, 0.00, 0.00, 0.00, 0.00, 0.00, 0.000, 0.000, 0.000, 15:55:13.336, 1563393313336
29, 1080.22, 0.00, 0.00, 0.00, 0.00, 0.00, 0.00, 0.00, 0.000, 0.000, 0.000, 15:55:13.336, 1563393313336
30, 1091.41, 0.00, 0.00, 0.00, 0.00, 0.00, 0.00, 0.00, 0.000, 0.000, 0.000, 15:55:13.336, 1563393313336
31, 1094.68, 0.00, 0.00, 0.00, 0.00, 0.00, 0.00, 0.00, 0.000, 0.000, 0.000, 15:55:13.336, 1563393313336
32, 1096.73, 0.00, 0.00, 0.00, 0.00, 0.00, 0.00, 0.00, 0.000, 0.000, 0.000, 15:55:13.336, 1563393313336
33, 1093.29, 0.00, 0.00, 0.00, 0.00, 0.00, 0.00, 0.00, 0.000, 0.000, 0.000, 15:55:13.336, 1563393313336
34, 1104.96, 0.00, 0.00, 0.00, 0.00, 0.00, 0.00, 0.00, 0.000, 0.000, 0.000, 15:55:13.336, 1563393313336
35, 1089.71, 0.00, 0.00, 0.00, 0.00, 0.00, 0.00, 0.00, 0.096, 0.022, 1.030, 15:55:13.336, 1563393313336
36, 1071.39, 0.00, 0.00, 0.00, 0.00, 0.00, 0.00, 0.00, 0.000, 0.000, 0.000, 15:55:13.336, 1563393313336
37, 1087.43, 0.00, 0.00, 0.00, 0.00, 0.00, 0.00, 0.00, 0.000, 0.000, 0.000, 15:55:13.336, 1563393313336
38, 1114.21, 0.00, 0.00, 0.00, 0.00, 0.00, 0.00, 0.00, 0.000, 0.000, 0.000, 15:55:13.336, 1563393313336
39, 1111.53, 0.00, 0.00, 0.00, 0.00, 0.00, 0.00, 0.00, 0.000, 0.000, 0.000, 15:55:13.336, 1563393313336
40, 1069.04, 0.00, 0.00, 0.00, 0.00, 0.00, 0.00, 0.00, 0.000, 0.000, 0.000, 15:55:13.336, 1563393313336
41, 1074.96, 0.00, 0.00, 0.00, 0.00, 0.00, 0.00, 0.00, 0.000, 0.000, 0.000, 15:55:13.336, 1563393313336
42, 1086.81, 0.00, 0.00, 0.00, 0.00, 0.00, 0.00, 0.00, 0.000, 0.000, 0.000, 15:55:13.337, 1563393313337
43, 1096.44, 0.00, 0.00, 0.00, 0.00, 0.00, 0.00, 0.00, 0.000, 0.000, 0.000, 15:55:13.337, 1563393313337
44, 1098.66, 0.00, 0.00, 0.00, 0.00, 0.00, 0.00, 0.00, 0.000, 0.000, 0.000, 15:55:13.337, 1563393313337
45, 1101.40, 0.00, 0.00, 0.00, 0.00, 0.00, 0.00, 0.00, 0.098, 0.024, 1.026, 15:55:13.337, 1563393313337
46, 1096.60, 0.00, 0.00, 0.00, 0.00, 0.00, 0.00, 0.00, 0.000, 0.000, 0.000, 15:55:13.337, 1563393313337
47, 1083.34, 0.00, 0.00, 0.00, 0.00, 0.00, 0.00, 0.00, 0.000, 0.000, 0.000, 15:55:13.337, 1563393313337
48, 1084.28, 0.00, 0.00, 0.00, 0.00, 0.00, 0.00, 0.00, 0.000, 0.000, 0.000, 15:55:13.337, 1563393313337
49, 1080.10, 0.00, 0.00, 0.00, 0.00, 0.00, 0.00, 0.00, 0.000, 0.000, 0.000, 15:55:13.337, 1563393313337
50, 1087.21, 0.00, 0.00, 0.00, 0.00, 0.00, 0.00, 0.00, 0.000, 0.000, 0.000, 15:55:13.337, 1563393313337
51, 1096.62, 0.00, 0.00, 0.00, 0.00, 0.00, 0.00, 0.00, 0.000, 0.000, 0.000, 15:55:13.337, 1563393313337
52, 1103.62, 0.00, 0.00, 0.00, 0.00, 0.00, 0.00, 0.00, 0.000, 0.000, 0.000, 15:55:13.337, 1563393313337
53, 1088.82, 0.00, 0.00, 0.00, 0.00, 0.00, 0.00, 0.00, 0.000, 0.000, 0.000, 15:55:13.337, 1563393313337
54, 1084.35, 0.00, 0.00, 0.00, 0.00, 0.00, 0.00, 0.00, 0.000, 0.000, 0.000, 15:55:13.337, 1563393313337
55, 1094.32, 0.00, 0.00, 0.00, 0.00, 0.00, 0.00, 0.00, 0.104, 0.018, 1.028, 15:55:13.337, 1563393313337
56, 1088.44, 0.00, 0.00, 0.00, 0.00, 0.00, 0.00, 0.00, 0.000, 0.000, 0.000, 15:55:13.337, 1563393313337
57, 1086.21, 0.00, 0.00, 0.00, 0.00, 0.00, 0.00, 0.00, 0.000, 0.000, 0.000, 15:55:13.337, 1563393313337
58, 1075.52, 0.00, 0.00, 0.00, 0.00, 0.00, 0.00, 0.00, 0.000, 0.000, 0.000, 15:55:13.337, 1563393313337
59, 1081.65, 0.00, 0.00, 0.00, 0.00, 0.00, 0.00, 0.00, 0.000, 0.000, 0.000, 15:55:13.337, 1563393313337
60, 1090.34, 0.00, 0.00, 0.00, 0.00, 0.00, 0.00, 0.00, 0.000, 0.000, 0.000, 15:55:13.337, 1563393313337
61, 1084.98, 0.00, 0.00, 0.00, 0.00, 0.00, 0.00, 0.00, 0.000, 0.000, 0.000, 15:55:13.337, 1563393313337
62, 1083.12, 0.00, 0.00, 0.00, 0.00, 0.00, 0.00, 0.00, 0.000, 0.000, 0.000, 15:55:13.337, 1563393313337
63, 1075.54, 0.00, 0.00, 0.00, 0.00, 0.00, 0.00, 0.00, 0.000, 0.000, 0.000, 15:55:13.337, 1563393313337
64, 1087.66, 0.00, 0.00, 0.00, 0.00, 0.00, 0.00, 0.00, 0.000, 0.000, 0.000, 15:55:13.337, 1563393313337
65, 1083.84, 0.00, 0.00, 0.00, 0.00, 0.00, 0.00, 0.00, 0.000, 0.000, 0.000, 15:55:13.338, 1563393313338
66, 1072.44, 0.00, 0.00, 0.00, 0.00, 0.00, 0.00, 0.00, 0.102, 0.020, 1.028, 15:55:13.338, 1563393313338
67, 1086.12, 0.00, 0.00, 0.00, 0.00, 0.00, 0.00, 0.00, 0.000, 0.000, 0.000, 15:55:13.338, 1563393313338
68, 1100.04, 0.00, 0.00, 0.00, 0.00, 0.00, 0.00, 0.00, 0.000, 0.000, 0.000, 15:55:13.338, 1563393313338
69, 1091.99, 0.00, 0.00, 0.00, 0.00, 0.00, 0.00, 0.00, 0.000, 0.000, 0.000, 15:55:13.338, 1563393313338
70, 1091.39, 0.00, 0.00, 0.00, 0.00, 0.00, 0.00, 0.00, 0.000, 0.000, 0.000, 15:55:13.338, 1563393313338
71, 1073.06, 0.00, 0.00, 0.00, 0.00, 0.00, 0.00, 0.00, 0.000, 0.000, 0.000, 15:55:13.338, 1563393313338
72, 1084.60, 0.00, 0.00, 0.00, 0.00, 0.00, 0.00, 0.00, 0.000, 0.000, 0.000, 15:55:13.338, 1563393313338
73, 1047.60, 0.00, 0.00, 0.00, 0.00, 0.00, 0.00, 0.00, 0.000, 0.000, 0.000, 15:55:13.338, 1563393313338
74, 1058.09, 0.00, 0.00, 0.00, 0.00, 0.00, 0.00, 0.00, 0.000, 0.000, 0.000, 15:55:13.338, 1563393313338
75, 1069.89, 0.00, 0.00, 0.00, 0.00, 0.00, 0.00, 0.00, 0.000, 0.000, 0.000, 15:55:13.338, 1563393313338
76, 1075.97, 0.00, 0.00, 0.00, 0.00, 0.00, 0.00, 0.00, 0.106, 0.016, 1.030, 15:55:13.338, 1563393313338
77, 1065.31, 0.00, 0.00, 0.00, 0.00, 0.00, 0.00, 0.00, 0.000, 0.000, 0.000, 15:55:13.338, 1563393313338
78, 1065.95, 0.00, 0.00, 0.00, 0.00, 0.00, 0.00, 0.00, 0.000, 0.000, 0.000, 15:55:13.338, 1563393313338
79, 1058.96, 0.00, 0.00, 0.00, 0.00, 0.00, 0.00, 0.00, 0.000, 0.000, 0.000, 15:55:13.338, 1563393313338
80, 1083.57, 0.00, 0.00, 0.00, 0.00, 0.00, 0.00, 0.00, 0.000, 0.000, 0.000, 15:55:13.338, 1563393313338
81, 1100.47, 0.00, 0.00, 0.00, 0.00, 0.00, 0.00, 0.00, 0.000, 0.000, 0.000, 15:55:13.338, 1563393313338
82, 1068.55, 0.00, 0.00, 0.00, 0.00, 0.00, 0.00, 0.00, 0.000, 0.000, 0.000, 15:55:13.338, 1563393313338
83, 1052.68, 0.00, 0.00, 0.00, 0.00, 0.00, 0.00, 0.00, 0.000, 0.000, 0.000, 15:55:13.338, 1563393313338
84, 1070.25, 0.00, 0.00, 0.00, 0.00, 0.00, 0.00, 0.00, 0.000, 0.000, 0.000, 15:55:13.338, 1563393313338
85, 1092.20, 0.00, 0.00, 0.00, 0.00, 0.00, 0.00, 0.00, 0.000, 0.000, 0.000, 15:55:13.338, 1563393313338
86, 1073.20, 0.00, 0.00, 0.00, 0.00, 0.00, 0.00, 0.00, 0.104, 0.020, 1.028, 15:55:13.338, 1563393313338
87, 1077.87, 0.00, 0.00, 0.00, 0.00, 0.00, 0.00, 0.00, 0.000, 0.000, 0.000, 15:55:13.338, 1563393313338
88, 1093.09, 0.00, 0.00, 0.00, 0.00, 0.00, 0.00, 0.00, 0.000, 0.000, 0.000, 15:55:13.338, 1563393313338
89, 1100.06, 0.00, 0.00, 0.00, 0.00, 0.00, 0.00, 0.00, 0.000, 0.000, 0.000, 15:55:13.338, 1563393313338
90, 1095.41, 0.00, 0.00, 0.00, 0.00, 0.00, 0.00, 0.00, 0.000, 0.000, 0.000, 15:55:13.813, 1563393313813
91, 1064.30, 0.00, 0.00, 0.00, 0.00, 0.00, 0.00, 0.00, 0.000, 0.000, 0.000, 15:55:13.814, 1563393313814
92, 1076.44, 0.00, 0.00, 0.00, 0.00, 0.00, 0.00, 0.00, 0.000, 0.000, 0.000, 15:55:13.814, 1563393313814
93, 1095.55, 0.00, 0.00, 0.00, 0.00, 0.00, 0.00, 0.00, 0.000, 0.000, 0.000, 15:55:13.814, 1563393313814
94, 1098.43, 0.00, 0.00, 0.00, 0.00, 0.00, 0.00, 0.00, 0.000, 0.000, 0.000, 15:55:13.814, 1563393313814
95, 1070.22, 0.00, 0.00, 0.00, 0.00, 0.00, 0.00, 0.00, 0.000, 0.000, 0.000, 15:55:13.814, 1563393313814
96, 1082.09, 0.00, 0.00, 0.00, 0.00, 0.00, 0.00, 0.00, 0.096, 0.022, 1.026, 15:55:13.814, 1563393313814
97, 1111.02, 0.00, 0.00, 0.00, 0.00, 0.00, 0.00, 0.00, 0.000, 0.000, 0.000, 15:55:13.814, 1563393313814
98, 1104.98, 0.00, 0.00, 0.00, 0.00, 0.00, 0.00, 0.00, 0.000, 0.000, 0.000, 15:55:13.814, 1563393313814
99, 1058.87, 0.00, 0.00, 0.00, 0.00, 0.00, 0.00, 0.00, 0.000, 0.000, 0.000, 15:55:13.814, 1563393313814
100, 1047.65, 0.00, 0.00, 0.00, 0.00, 0.00, 0.00, 0.00, 0.000, 0.000, 0.000, 15:55:13.814, 1563393313814
101, 1067.14, 0.00, 0.00, 0.00, 0.00, 0.00, 0.00, 0.00, 0.000, 0.000, 0.000, 15:55:13.814, 1563393313814
102, 1083.41, 0.00, 0.00, 0.00, 0.00, 0.00, 0.00, 0.00, 0.000, 0.000, 0.000, 15:55:13.814, 1563393313814
103, 1088.73, 0.00, 0.00, 0.00, 0.00, 0.00, 0.00, 0.00, 0.000, 0.000, 0.000, 15:55:13.814, 1563393313814
104, 1082.74, 0.00, 0.00, 0.00, 0.00, 0.00, 0.00, 0.00, 0.000, 0.000, 0.000, 15:55:13.814, 1563393313814
105, 1093.18, 0.00, 0.00, 0.00, 0.00, 0.00, 0.00, 0.00, 0.000, 0.000, 0.000, 15:55:13.814, 1563393313814
106, 1088.22, 0.00, 0.00, 0.00, 0.00, 0.00, 0.00, 0.00, 0.104, 0.016, 1.022, 15:55:13.814, 1563393313814
107, 1060.93, 0.00, 0.00, 0.00, 0.00, 0.00, 0.00, 0.00, 0.000, 0.000, 0.000, 15:55:13.815, 1563393313815
108, 1060.84, 0.00, 0.00, 0.00, 0.00, 0.00, 0.00, 0.00, 0.000, 0.000, 0.000, 15:55:13.815, 1563393313815
109, 1062.11, 0.00, 0.00, 0.00, 0.00, 0.00, 0.00, 0.00, 0.000, 0.000, 0.000, 15:55:13.815, 1563393313815
110, 1059.09, 0.00, 0.00, 0.00, 0.00, 0.00, 0.00, 0.00, 0.000, 0.000, 0.000, 15:55:13.815, 1563393313815
111, 1051.05, 0.00, 0.00, 0.00, 0.00, 0.00, 0.00, 0.00, 0.000, 0.000, 0.000, 15:55:13.815, 1563393313815
112, 1052.63, 0.00, 0.00, 0.00, 0.00, 0.00, 0.00, 0.00, 0.000, 0.000, 0.000, 15:55:13.815, 1563393313815
113, 1057.53, 0.00, 0.00, 0.00, 0.00, 0.00, 0.00, 0.00, 0.000, 0.000, 0.000, 15:55:13.815, 1563393313815
114, 1072.06, 0.00, 0.00, 0.00, 0.00, 0.00, 0.00, 0.00, 0.000, 0.000, 0.000, 15:55:13.815, 1563393313815
115, 1058.69, 0.00, 0.00, 0.00, 0.00, 0.00, 0.00, 0.00, 0.000, 0.000, 0.000, 15:55:13.815, 1563393313815
116, 1050.15, 0.00, 0.00, 0.00, 0.00, 0.00, 0.00, 0.00, 0.104, 0.026, 1.024, 15:55:13.815, 1563393313815
117, 1051.40, 0.00, 0.00, 0.00, 0.00, 0.00, 0.00, 0.00, 0.000, 0.000, 0.000, 15:55:13.815, 1563393313815
118, 1052.68, 0.00, 0.00, 0.00, 0.00, 0.00, 0.00, 0.00, 0.000, 0.000, 0.000, 15:55:13.815, 1563393313815
119, 1017.65, 0.00, 0.00, 0.00, 0.00, 0.00, 0.00, 0.00, 0.000, 0.000, 0.000, 15:55:13.815, 1563393313815
120, 1008.09, 0.00, 0.00, 0.00, 0.00, 0.00, 0.00, 0.00, 0.000, 0.000, 0.000, 15:55:13.815, 1563393313815
121, 1002.14, 0.00, 0.00, 0.00, 0.00, 0.00, 0.00, 0.00, 0.000, 0.000, 0.000, 15:55:13.815, 1563393313815
122, 1005.63, 0.00, 0.00, 0.00, 0.00, 0.00, 0.00, 0.00, 0.000, 0.000, 0.000, 15:55:13.815, 1563393313815
123, 1003.93, 0.00, 0.00, 0.00, 0.00, 0.00, 0.00, 0.00, 0.000, 0.000, 0.000, 15:55:13.815, 1563393313815
124, 984.37, 0.00, 0.00, 0.00, 0.00, 0.00, 0.00, 0.00, 0.000, 0.000, 0.000, 15:55:13.815, 1563393313815
125, 965.06, 0.00, 0.00, 0.00, 0.00, 0.00, 0.00, 0.00, 0.000, 0.000, 0.000, 15:55:13.815, 1563393313815
126, 961.71, 0.00, 0.00, 0.00, 0.00, 0.00, 0.00, 0.00, 0.000, 0.000, 0.000, 15:55:13.815, 1563393313815
127, 958.11, 0.00, 0.00, 0.00, 0.00, 0.00, 0.00, 0.00, 0.106, 0.024, 1.022, 15:55:13.815, 1563393313815
128, 933.52, 0.00, 0.00, 0.00, 0.00, 0.00, 0.00, 0.00, 0.000, 0.000, 0.000, 15:55:13.815, 1563393313815
129, 920.11, 0.00, 0.00, 0.00, 0.00, 0.00, 0.00, 0.00, 0.000, 0.000, 0.000, 15:55:13.815, 1563393313815
130, 882.69, 0.00, 0.00, 0.00, 0.00, 0.00, 0.00, 0.00, 0.000, 0.000, 0.000, 15:55:13.815, 1563393313815
131, 860.50, 0.00, 0.00, 0.00, 0.00, 0.00, 0.00, 0.00, 0.000, 0.000, 0.000, 15:55:13.815, 1563393313815
132, 880.93, 0.00, 0.00, 0.00, 0.00, 0.00, 0.00, 0.00, 0.000, 0.000, 0.000, 15:55:13.815, 1563393313815
133, 857.93, 0.00, 0.00, 0.00, 0.00, 0.00, 0.00, 0.00, 0.000, 0.000, 0.000, 15:55:13.816, 1563393313816
134, 835.53, 0.00, 0.00, 0.00, 0.00, 0.00, 0.00, 0.00, 0.000, 0.000, 0.000, 15:55:13.816, 1563393313816
135, 821.78, 0.00, 0.00, 0.00, 0.00, 0.00, 0.00, 0.00, 0.000, 0.000, 0.000, 15:55:13.816, 1563393313816
136, 810.32, 0.00, 0.00, 0.00, 0.00, 0.00, 0.00, 0.00, 0.000, 0.000, 0.000, 15:55:13.816, 1563393313816
137, 802.18, 0.00, 0.00, 0.00, 0.00, 0.00, 0.00, 0.00, 0.104, 0.024, 1.018, 15:55:13.816, 1563393313816
138, 799.99, 0.00, 0.00, 0.00, 0.00, 0.00, 0.00, 0.00, 0.000, 0.000, 0.000, 15:55:13.816, 1563393313816
139, 781.17, 0.00, 0.00, 0.00, 0.00, 0.00, 0.00, 0.00, 0.000, 0.000, 0.000, 15:55:13.816, 1563393313816
140, 763.74, 0.00, 0.00, 0.00, 0.00, 0.00, 0.00, 0.00, 0.000, 0.000, 0.000, 15:55:13.816, 1563393313816
141, 734.70, 0.00, 0.00, 0.00, 0.00, 0.00, 0.00, 0.00, 0.000, 0.000, 0.000, 15:55:13.816, 1563393313816
142, 735.57, 0.00, 0.00, 0.00, 0.00, 0.00, 0.00, 0.00, 0.000, 0.000, 0.000, 15:55:13.816, 1563393313816
143, 749.77, 0.00, 0.00, 0.00, 0.00, 0.00, 0.00, 0.00, 0.000, 0.000, 0.000, 15:55:13.816, 1563393313816
144, 710.27, 0.00, 0.00, 0.00, 0.00, 0.00, 0.00, 0.00, 0.000, 0.000, 0.000, 15:55:13.816, 1563393313816
145, 707.79, 0.00, 0.00, 0.00, 0.00, 0.00, 0.00, 0.00, 0.000, 0.000, 0.000, 15:55:13.816, 1563393313816
146, 717.76, 0.00, 0.00, 0.00, 0.00, 0.00, 0.00, 0.00, 0.000, 0.000, 0.000, 15:55:13.816, 1563393313816
147, 702.76, 0.00, 0.00, 0.00, 0.00, 0.00, 0.00, 0.00, 0.102, 0.018, 1.026, 15:55:13.816, 1563393313816
148, 691.65, 0.00, 0.00, 0.00, 0.00, 0.00, 0.00, 0.00, 0.000, 0.000, 0.000, 15:55:13.816, 1563393313816
149, 686.89, 0.00, 0.00, 0.00, 0.00, 0.00, 0.00, 0.00, 0.000, 0.000, 0.000, 15:55:13.816, 1563393313816
150, 685.10, 0.00, 0.00, 0.00, 0.00, 0.00, 0.00, 0.00, 0.000, 0.000, 0.000, 15:55:13.816, 1563393313816
151, 700.37, 0.00, 0.00, 0.00, 0.00, 0.00, 0.00, 0.00, 0.000, 0.000, 0.000, 15:55:13.816, 1563393313816
152, 695.41, 0.00, 0.00, 0.00, 0.00, 0.00, 0.00, 0.00, 0.000, 0.000, 0.000, 15:55:13.816, 1563393313816
153, 666.95, 0.00, 0.00, 0.00, 0.00, 0.00, 0.00, 0.00, 0.000, 0.000, 0.000, 15:55:13.816, 1563393313816
154, 657.63, 0.00, 0.00, 0.00, 0.00, 0.00, 0.00, 0.00, 0.000, 0.000, 0.000, 15:55:13.816, 1563393313816
155, 681.97, 0.00, 0.00, 0.00, 0.00, 0.00, 0.00, 0.00, 0.000, 0.000, 0.000, 15:55:13.816, 1563393313816
156, 682.53, 0.00, 0.00, 0.00, 0.00, 0.00, 0.00, 0.00, 0.000, 0.000, 0.000, 15:55:13.816, 1563393313816
157, 650.17, 0.00, 0.00, 0.00, 0.00, 0.00, 0.00, 0.00, 0.100, 0.020, 1.026, 15:55:13.816, 1563393313816
158, 632.08, 0.00, 0.00, 0.00, 0.00, 0.00, 0.00, 0.00, 0.000, 0.000, 0.000, 15:55:13.816, 1563393313816
159, 655.84, 0.00, 0.00, 0.00, 0.00, 0.00, 0.00, 0.00, 0.000, 0.000, 0.000, 15:55:13.816, 1563393313816
160, 664.72, 0.00, 0.00, 0.00, 0.00, 0.00, 0.00, 0.00, 0.000, 0.000, 0.000, 15:55:13.817, 1563393313817
161, 675.27, 0.00, 0.00, 0.00, 0.00, 0.00, 0.00, 0.00, 0.000, 0.000, 0.000, 15:55:13.817, 1563393313817
162, 665.93, 0.00, 0.00, 0.00, 0.00, 0.00, 0.00, 0.00, 0.000, 0.000, 0.000, 15:55:13.817, 1563393313817
163, 651.53, 0.00, 0.00, 0.00, 0.00, 0.00, 0.00, 0.00, 0.000, 0.000, 0.000, 15:55:13.817, 1563393313817
164, 644.42, 0.00, 0.00, 0.00, 0.00, 0.00, 0.00, 0.00, 0.000, 0.000, 0.000, 15:55:13.817, 1563393313817
165, 650.35, 0.00, 0.00, 0.00, 0.00, 0.00, 0.00, 0.00, 0.000, 0.000, 0.000, 15:55:13.817, 1563393313817
166, 652.02, 0.00, 0.00, 0.00, 0.00, 0.00, 0.00, 0.00, 0.000, 0.000, 0.000, 15:55:13.817, 1563393313817
167, 664.43, 0.00, 0.00, 0.00, 0.00, 0.00, 0.00, 0.00, 0.094, 0.020, 1.026, 15:55:13.817, 1563393313817
168, 654.93, 0.00, 0.00, 0.00, 0.00, 0.00, 0.00, 0.00, 0.000, 0.000, 0.000, 15:55:13.817, 1563393313817
169, 637.27, 0.00, 0.00, 0.00, 0.00, 0.00, 0.00, 0.00, 0.000, 0.000, 0.000, 15:55:13.817, 1563393313817
170, 633.87, 0.00, 0.00, 0.00, 0.00, 0.00, 0.00, 0.00, 0.000, 0.000, 0.000, 15:55:13.817, 1563393313817
171, 637.00, 0.00, 0.00, 0.00, 0.00, 0.00, 0.00, 0.00, 0.000, 0.000, 0.000, 15:55:13.817, 1563393313817
172, 636.82, 0.00, 0.00, 0.00, 0.00, 0.00, 0.00, 0.00, 0.000, 0.000, 0.000, 15:55:13.817, 1563393313817
173, 634.97, 0.00, 0.00, 0.00, 0.00, 0.00, 0.00, 0.00, 0.000, 0.000, 0.000, 15:55:13.817, 1563393313817
174, 638.99, 0.00, 0.00, 0.00, 0.00, 0.00, 0.00, 0.00, 0.000, 0.000, 0.000, 15:55:13.817, 1563393313817
175, 635.53, 0.00, 0.00, 0.00, 0.00, 0.00, 0.00, 0.00, 0.000, 0.000, 0.000, 15:55:13.817, 1563393313817
176, 628.29, 0.00, 0.00, 0.00, 0.00, 0.00, 0.00, 0.00, 0.000, 0.000, 0.000, 15:55:13.817, 1563393313817
177, 626.34, 0.00, 0.00, 0.00, 0.00, 0.00, 0.00, 0.00, 0.000, 0.000, 0.000, 15:55:13.817, 1563393313817
178, 638.88, 0.00, 0.00, 0.00, 0.00, 0.00, 0.00, 0.00, 0.102, 0.018, 1.026, 15:55:13.817, 1563393313817
179, 619.32, 0.00, 0.00, 0.00, 0.00, 0.00, 0.00, 0.00, 0.000, 0.000, 0.000, 15:55:13.817, 1563393313817
180, 604.50, 0.00, 0.00, 0.00, 0.00, 0.00, 0.00, 0.00, 0.000, 0.000, 0.000, 15:55:13.817, 1563393313817
181, 606.31, 0.00, 0.00, 0.00, 0.00, 0.00, 0.00, 0.00, 0.000, 0.000, 0.000, 15:55:13.817, 1563393313817
182, 605.53, 0.00, 0.00, 0.00, 0.00, 0.00, 0.00, 0.00, 0.000, 0.000, 0.000, 15:55:13.817, 1563393313817
183, 615.25, 0.00, 0.00, 0.00, 0.00, 0.00, 0.00, 0.00, 0.000, 0.000, 0.000, 15:55:13.817, 1563393313817
184, 617.91, 0.00, 0.00, 0.00, 0.00, 0.00, 0.00, 0.00, 0.000, 0.000, 0.000, 15:55:13.817, 1563393313817
185, 633.25, 0.00, 0.00, 0.00, 0.00, 0.00, 0.00, 0.00, 0.000, 0.000, 0.000, 15:55:13.817, 1563393313817
186, 633.94, 0.00, 0.00, 0.00, 0.00, 0.00, 0.00, 0.00, 0.000, 0.000, 0.000, 15:55:13.817, 1563393313817
187, 634.01, 0.00, 0.00, 0.00, 0.00, 0.00, 0.00, 0.00, 0.000, 0.000, 0.000, 15:55:13.818, 1563393313818
188, 624.13, 0.00, 0.00, 0.00, 0.00, 0.00, 0.00, 0.00, 0.100, 0.020, 1.028, 15:55:13.818, 1563393313818
189, 627.84, 0.00, 0.00, 0.00, 0.00, 0.00, 0.00, 0.00, 0.000, 0.000, 0.000, 15:55:13.818, 1563393313818
190, 625.87, 0.00, 0.00, 0.00, 0.00, 0.00, 0.00, 0.00, 0.000, 0.000, 0.000, 15:55:13.818, 1563393313818
191, 624.51, 0.00, 0.00, 0.00, 0.00, 0.00, 0.00, 0.00, 0.000, 0.000, 0.000, 15:55:13.818, 1563393313818
192, 602.42, 0.00, 0.00, 0.00, 0.00, 0.00, 0.00, 0.00, 0.000, 0.000, 0.000, 15:55:13.818, 1563393313818
193, 598.42, 0.00, 0.00, 0.00, 0.00, 0.00, 0.00, 0.00, 0.000, 0.000, 0.000, 15:55:13.818, 1563393313818
194, 609.04, 0.00, 0.00, 0.00, 0.00, 0.00, 0.00, 0.00, 0.000, 0.000, 0.000, 15:55:13.818, 1563393313818
195, 599.63, 0.00, 0.00, 0.00, 0.00, 0.00, 0.00, 0.00, 0.000, 0.000, 0.000, 15:55:13.818, 1563393313818
196, 596.99, 0.00, 0.00, 0.00, 0.00, 0.00, 0.00, 0.00, 0.000, 0.000, 0.000, 15:55:13.818, 1563393313818
197, 615.68, 0.00, 0.00, 0.00, 0.00, 0.00, 0.00, 0.00, 0.000, 0.000, 0.000, 15:55:13.818, 1563393313818
198, 628.53, 0.00, 0.00, 0.00, 0.00, 0.00, 0.00, 0.00, 0.104, 0.018, 1.026, 15:55:13.818, 1563393313818
199, 623.23, 0.00, 0.00, 0.00, 0.00, 0.00, 0.00, 0.00, 0.000, 0.000, 0.000, 15:55:13.818, 1563393313818
200, 608.26, 0.00, 0.00, 0.00, 0.00, 0.00, 0.00, 0.00, 0.000, 0.000, 0.000, 15:55:13.818, 1563393313818
201, 605.64, 0.00, 0.00, 0.00, 0.00, 0.00, 0.00, 0.00, 0.000, 0.000, 0.000, 15:55:13.818, 1563393313818
202, 619.12, 0.00, 0.00, 0.00, 0.00, 0.00, 0.00, 0.00, 0.000, 0.000, 0.000, 15:55:13.818, 1563393313818
203, 597.73, 0.00, 0.00, 0.00, 0.00, 0.00, 0.00, 0.00, 0.000, 0.000, 0.000, 15:55:13.818, 1563393313818
204, 580.72, 0.00, 0.00, 0.00, 0.00, 0.00, 0.00, 0.00, 0.000, 0.000, 0.000, 15:55:13.818, 1563393313818
205, 588.32, 0.00, 0.00, 0.00, 0.00, 0.00, 0.00, 0.00, 0.000, 0.000, 0.000, 15:55:13.818, 1563393313818
206, 603.25, 0.00, 0.00, 0.00, 0.00, 0.00, 0.00, 0.00, 0.000, 0.000, 0.000, 15:55:13.818, 1563393313818
207, 593.08, 0.00, 0.00, 0.00, 0.00, 0.00, 0.00, 0.00, 0.000, 0.000, 0.000, 15:55:13.818, 1563393313818
208, 585.93, 0.00, 0.00, 0.00, 0.00, 0.00, 0.00, 0.00, 0.106, 0.022, 1.022, 15:55:13.818, 1563393313818
209, 583.02, 0.00, 0.00, 0.00, 0.00, 0.00, 0.00, 0.00, 0.000, 0.000, 0.000, 15:55:13.818, 1563393313818
210, 577.21, 0.00, 0.00, 0.00, 0.00, 0.00, 0.00, 0.00, 0.000, 0.000, 0.000, 15:55:14.293, 1563393314293
211, 565.77, 0.00, 0.00, 0.00, 0.00, 0.00, 0.00, 0.00, 0.000, 0.000, 0.000, 15:55:14.293, 1563393314293
212, 567.26, 0.00, 0.00, 0.00, 0.00, 0.00, 0.00, 0.00, 0.000, 0.000, 0.000, 15:55:14.293, 1563393314293
213, 591.58, 0.00, 0.00, 0.00, 0.00, 0.00, 0.00, 0.00, 0.000, 0.000, 0.000, 15:55:14.293, 1563393314293
214, 602.29, 0.00, 0.00, 0.00, 0.00, 0.00, 0.00, 0.00, 0.000, 0.000, 0.000, 15:55:14.293, 1563393314293
215, 587.20, 0.00, 0.00, 0.00, 0.00, 0.00, 0.00, 0.00, 0.000, 0.000, 0.000, 15:55:14.293, 1563393314293
216, 569.05, 0.00, 0.00, 0.00, 0.00, 0.00, 0.00, 0.00, 0.000, 0.000, 0.000, 15:55:14.294, 1563393314294
217, 557.12, 0.00, 0.00, 0.00, 0.00, 0.00, 0.00, 0.00, 0.000, 0.000, 0.000, 15:55:14.294, 1563393314294
218, 574.93, 0.00, 0.00, 0.00, 0.00, 0.00, 0.00, 0.00, 0.100, 0.020, 1.024, 15:55:14.294, 1563393314294
219, 593.10, 0.00, 0.00, 0.00, 0.00, 0.00, 0.00, 0.00, 0.000, 0.000, 0.000, 15:55:14.294, 1563393314294
220, 591.94, 0.00, 0.00, 0.00, 0.00, 0.00, 0.00, 0.00, 0.000, 0.000, 0.000, 15:55:14.294, 1563393314294
221, 583.25, 0.00, 0.00, 0.00, 0.00, 0.00, 0.00, 0.00, 0.000, 0.000, 0.000, 15:55:14.294, 1563393314294
222, 599.41, 0.00, 0.00, 0.00, 0.00, 0.00, 0.00, 0.00, 0.000, 0.000, 0.000, 15:55:14.294, 1563393314294
223, 595.76, 0.00, 0.00, 0.00, 0.00, 0.00, 0.00, 0.00, 0.000, 0.000, 0.000, 15:55:14.294, 1563393314294
224, 563.17, 0.00, 0.00, 0.00, 0.00, 0.00, 0.00, 0.00, 0.000, 0.000, 0.000, 15:55:14.294, 1563393314294
225, 549.16, 0.00, 0.00, 0.00, 0.00, 0.00, 0.00, 0.00, 0.000, 0.000, 0.000, 15:55:14.294, 1563393314294
226, 567.67, 0.00, 0.00, 0.00, 0.00, 0.00, 0.00, 0.00, 0.000, 0.000, 0.000, 15:55:14.294, 1563393314294
227, 576.21, 0.00, 0.00, 0.00, 0.00, 0.00, 0.00, 0.00, 0.000, 0.000, 0.000, 15:55:14.294, 1563393314294
228, 570.82, 0.00, 0.00, 0.00, 0.00, 0.00, 0.00, 0.00, 0.000, 0.000, 0.000, 15:55:14.294, 1563393314294
229, 563.44, 0.00, 0.00, 0.00, 0.00, 0.00, 0.00, 0.00, 0.104, 0.020, 1.018, 15:55:14.294, 1563393314294
230, 562.39, 0.00, 0.00, 0.00, 0.00, 0.00, 0.00, 0.00, 0.000, 0.000, 0.000, 15:55:14.294, 1563393314294
231, 562.79, 0.00, 0.00, 0.00, 0.00, 0.00, 0.00, 0.00, 0.000, 0.000, 0.000, 15:55:14.294, 1563393314294
232, 557.70, 0.00, 0.00, 0.00, 0.00, 0.00, 0.00, 0.00, 0.000, 0.000, 0.000, 15:55:14.294, 1563393314294
233, 534.77, 0.00, 0.00, 0.00, 0.00, 0.00, 0.00, 0.00, 0.000, 0.000, 0.000, 15:55:14.294, 1563393314294
234, 531.59, 0.00, 0.00, 0.00, 0.00, 0.00, 0.00, 0.00, 0.000, 0.000, 0.000, 15:55:14.294, 1563393314294
235, 549.09, 0.00, 0.00, 0.00, 0.00, 0.00, 0.00, 0.00, 0.000, 0.000, 0.000, 15:55:14.294, 1563393314294
236, 555.82, 0.00, 0.00, 0.00, 0.00, 0.00, 0.00, 0.00, 0.000, 0.000, 0.000, 15:55:14.294, 1563393314294
237, 537.81, 0.00, 0.00, 0.00, 0.00, 0.00, 0.00, 0.00, 0.000, 0.000, 0.000, 15:55:14.294, 1563393314294
238, 554.97, 0.00, 0.00, 0.00, 0.00, 0.00, 0.00, 0.00, 0.000, 0.000, 0.000, 15:55:14.294, 1563393314294
239, 584.43, 0.00, 0.00, 0.00, 0.00, 0.00, 0.00, 0.00, 0.098, 0.020, 1.024, 15:55:14.294, 1563393314294
240, 579.33, 0.00, 0.00, 0.00, 0.00, 0.00, 0.00, 0.00, 0.000, 0.000, 0.000, 15:55:14.294, 1563393314294
241, 542.99, 0.00, 0.00, 0.00, 0.00, 0.00, 0.00, 0.00, 0.000, 0.000, 0.000, 15:55:14.294, 1563393314294
242, 540.04, 0.00, 0.00, 0.00, 0.00, 0.00, 0.00, 0.00, 0.000, 0.000, 0.000, 15:55:14.294, 1563393314294
243, 551.17, 0.00, 0.00, 0.00, 0.00, 0.00, 0.00, 0.00, 0.000, 0.000, 0.000, 15:55:14.294, 1563393314294
244, 556.65, 0.00, 0.00, 0.00, 0.00, 0.00, 0.00, 0.00, 0.000, 0.000, 0.000, 15:55:14.294, 1563393314294
245, 557.79, 0.00, 0.00, 0.00, 0.00, 0.00, 0.00, 0.00, 0.000, 0.000, 0.000, 15:55:14.295, 1563393314295
246, 532.89, 0.00, 0.00, 0.00, 0.00, 0.00, 0.00, 0.00, 0.000, 0.000, 0.000, 15:55:14.295, 1563393314295
247, 537.51, 0.00, 0.00, 0.00, 0.00, 0.00, 0.00, 0.00, 0.000, 0.000, 0.000, 15:55:14.295, 1563393314295
248, 530.72, 0.00, 0.00, 0.00, 0.00, 0.00, 0.00, 0.00, 0.000, 0.000, 0.000, 15:55:14.295, 1563393314295
249, 518.02, 0.00, 0.00, 0.00, 0.00, 0.00, 0.00, 0.00, 0.098, 0.026, 1.020, 15:55:14.295, 1563393314295
250, 517.91, 0.00, 0.00, 0.00, 0.00, 0.00, 0.00, 0.00, 0.000, 0.000, 0.000, 15:55:14.295, 1563393314295
251, 520.71, 0.00, 0.00, 0.00, 0.00, 0.00, 0.00, 0.00, 0.000, 0.000, 0.000, 15:55:14.295, 1563393314295
252, 529.62, 0.00, 0.00, 0.00, 0.00, 0.00, 0.00, 0.00, 0.000, 0.000, 0.000, 15:55:14.295, 1563393314295
253, 530.14, 0.00, 0.00, 0.00, 0.00, 0.00, 0.00, 0.00, 0.000, 0.000, 0.000, 15:55:14.295, 1563393314295
254, 528.73, 0.00, 0.00, 0.00, 0.00, 0.00, 0.00, 0.00, 0.000, 0.000, 0.000, 15:55:14.295, 1563393314295
255, 531.93, 0.00, 0.00, 0.00, 0.00, 0.00, 0.00, 0.00, 0.000, 0.000, 0.000, 15:55:14.295, 1563393314295
0, 534.21, 0.00, 0.00, 0.00, 0.00, 0.00, 0.00, 0.00, 0.000, 0.000, 0.000, 15:55:14.295, 1563393314295
1, 530.16, 0.00, 0.00, 0.00, 0.00, 0.00, 0.00, 0.00, 0.000, 0.000, 0.000, 15:55:14.295, 1563393314295
2, 537.58, 0.00, 0.00, 0.00, 0.00, 0.00, 0.00, 0.00, 0.000, 0.000, 0.000, 15:55:14.295, 1563393314295
3, 522.34, 0.00, 0.00, 0.00, 0.00, 0.00, 0.00, 0.00, 0.098, 0.024, 1.024, 15:55:14.295, 1563393314295
4, 529.13, 0.00, 0.00, 0.00, 0.00, 0.00, 0.00, 0.00, 0.000, 0.000, 0.000, 15:55:14.295, 1563393314295
5, 530.72, 0.00, 0.00, 0.00, 0.00, 0.00, 0.00, 0.00, 0.000, 0.000, 0.000, 15:55:14.295, 1563393314295
6, 529.49, 0.00, 0.00, 0.00, 0.00, 0.00, 0.00, 0.00, 0.000, 0.000, 0.000, 15:55:14.295, 1563393314295
7, 525.60, 0.00, 0.00, 0.00, 0.00, 0.00, 0.00, 0.00, 0.000, 0.000, 0.000, 15:55:14.295, 1563393314295
8, 547.95, 0.00, 0.00, 0.00, 0.00, 0.00, 0.00, 0.00, 0.000, 0.000, 0.000, 15:55:14.295, 1563393314295
9, 533.09, 0.00, 0.00, 0.00, 0.00, 0.00, 0.00, 0.00, 0.000, 0.000, 0.000, 15:55:14.295, 1563393314295
10, 517.87, 0.00, 0.00, 0.00, 0.00, 0.00, 0.00, 0.00, 0.000, 0.000, 0.000, 15:55:14.295, 1563393314295
11, 526.12, 0.00, 0.00, 0.00, 0.00, 0.00, 0.00, 0.00, 0.000, 0.000, 0.000, 15:55:14.295, 1563393314295
12, 539.19, 0.00, 0.00, 0.00, 0.00, 0.00, 0.00, 0.00, 0.000, 0.000, 0.000, 15:55:14.295, 1563393314295
13, 523.81, 0.00, 0.00, 0.00, 0.00, 0.00, 0.00, 0.00, 0.100, 0.024, 1.028, 15:55:14.295, 1563393314295
14, 495.36, 0.00, 0.00, 0.00, 0.00, 0.00, 0.00, 0.00, 0.000, 0.000, 0.000, 15:55:14.295, 1563393314295
15, 517.15, 0.00, 0.00, 0.00, 0.00, 0.00, 0.00, 0.00, 0.000, 0.000, 0.000, 15:55:14.296, 1563393314296
16, 549.85, 0.00, 0.00, 0.00, 0.00, 0.00, 0.00, 0.00, 0.000, 0.000, 0.000, 15:55:14.296, 1563393314296
17, 539.93, 0.00, 0.00, 0.00, 0.00, 0.00, 0.00, 0.00, 0.000, 0.000, 0.000, 15:55:14.296, 1563393314296
18, 511.77, 0.00, 0.00, 0.00, 0.00, 0.00, 0.00, 0.00, 0.000, 0.000, 0.000, 15:55:14.296, 1563393314296
19, 493.41, 0.00, 0.00, 0.00, 0.00, 0.00, 0.00, 0.00, 0.000, 0.000, 0.000, 15:55:14.296, 1563393314296
20, 509.13, 0.00, 0.00, 0.00, 0.00, 0.00, 0.00, 0.00, 0.000, 0.000, 0.000, 15:55:14.296, 1563393314296
21, 521.20, 0.00, 0.00, 0.00, 0.00, 0.00, 0.00, 0.00, 0.000, 0.000, 0.000, 15:55:14.296, 1563393314296
22, 510.20, 0.00, 0.00, 0.00, 0.00, 0.00, 0.00, 0.00, 0.000, 0.000, 0.000, 15:55:14.296, 1563393314296
23, 498.58, 0.00, 0.00, 0.00, 0.00, 0.00, 0.00, 0.00, 0.098, 0.020, 1.030, 15:55:14.296, 1563393314296
24, 507.63, 0.00, 0.00, 0.00, 0.00, 0.00, 0.00, 0.00, 0.000, 0.000, 0.000, 15:55:14.296, 1563393314296
25, 524.51, 0.00, 0.00, 0.00, 0.00, 0.00, 0.00, 0.00, 0.000, 0.000, 0.000, 15:55:14.296, 1563393314296
26, 505.44, 0.00, 0.00, 0.00, 0.00, 0.00, 0.00, 0.00, 0.000, 0.000, 0.000, 15:55:14.296, 1563393314296
27, 503.43, 0.00, 0.00, 0.00, 0.00, 0.00, 0.00, 0.00, 0.000, 0.000, 0.000, 15:55:14.296, 1563393314296
28, 528.31, 0.00, 0.00, 0.00, 0.00, 0.00, 0.00, 0.00, 0.000, 0.000, 0.000, 15:55:14.296, 1563393314296
29, 548.98, 0.00, 0.00, 0.00, 0.00, 0.00, 0.00, 0.00, 0.000, 0.000, 0.000, 15:55:14.296, 1563393314296
30, 516.79, 0.00, 0.00, 0.00, 0.00, 0.00, 0.00, 0.00, 0.000, 0.000, 0.000, 15:55:14.296, 1563393314296
31, 502.87, 0.00, 0.00, 0.00, 0.00, 0.00, 0.00, 0.00, 0.000, 0.000, 0.000, 15:55:14.296, 1563393314296
32, 519.75, 0.00, 0.00, 0.00, 0.00, 0.00, 0.00, 0.00, 0.000, 0.000, 0.000, 15:55:14.296, 1563393314296
33, 524.60, 0.00, 0.00, 0.00, 0.00, 0.00, 0.00, 0.00, 0.000, 0.000, 0.000, 15:55:14.296, 1563393314296
34, 513.15, 0.00, 0.00, 0.00, 0.00, 0.00, 0.00, 0.00, 0.098, 0.020, 1.024, 15:55:14.296, 1563393314296
35, 501.19, 0.00, 0.00, 0.00, 0.00, 0.00, 0.00, 0.00, 0.000, 0.000, 0.000, 15:55:14.296, 1563393314296
36, 512.93, 0.00, 0.00, 0.00, 0.00, 0.00, 0.00, 0.00, 0.000, 0.000, 0.000, 15:55:14.296, 1563393314296
37, 526.47, 0.00, 0.00, 0.00, 0.00, 0.00, 0.00, 0.00, 0.000, 0.000, 0.000, 15:55:14.296, 1563393314296
38, 519.99, 0.00, 0.00, 0.00, 0.00, 0.00, 0.00, 0.00, 0.000, 0.000, 0.000, 15:55:14.296, 1563393314296
39, 494.82, 0.00, 0.00, 0.00, 0.00, 0.00, 0.00, 0.00, 0.000, 0.000, 0.000, 15:55:14.296, 1563393314296
40, 496.59, 0.00, 0.00, 0.00, 0.00, 0.00, 0.00, 0.00, 0.000, 0.000, 0.000, 15:55:14.296, 1563393314296
41, 516.08, 0.00, 0.00, 0.00, 0.00, 0.00, 0.00, 0.00, 0.000, 0.000, 0.000, 15:55:14.297, 1563393314297
42, 516.91, 0.00, 0.00, 0.00, 0.00, 0.00, 0.00, 0.00, 0.000, 0.000, 0.000, 15:55:14.297, 1563393314297
43, 496.14, 0.00, 0.00, 0.00, 0.00, 0.00, 0.00, 0.00, 0.000, 0.000, 0.000, 15:55:14.297, 1563393314297
44, 508.28, 0.00, 0.00, 0.00, 0.00, 0.00, 0.00, 0.00, 0.100, 0.022, 1.028, 15:55:14.297, 1563393314297
45, 512.28, 0.00, 0.00, 0.00, 0.00, 0.00, 0.00, 0.00, 0.000, 0.000, 0.000, 15:55:14.297, 1563393314297
46, 517.40, 0.00, 0.00, 0.00, 0.00, 0.00, 0.00, 0.00, 0.000, 0.000, 0.000, 15:55:14.297, 1563393314297
47, 503.16, 0.00, 0.00, 0.00, 0.00, 0.00, 0.00, 0.00, 0.000, 0.000, 0.000, 15:55:14.297, 1563393314297
48, 500.19, 0.00, 0.00, 0.00, 0.00, 0.00, 0.00, 0.00, 0.000, 0.000, 0.000, 15:55:14.297, 1563393314297
49, 522.72, 0.00, 0.00, 0.00, 0.00, 0.00, 0.00, 0.00, 0.000, 0.000, 0.000, 15:55:14.297, 1563393314297
50, 527.57, 0.00, 0.00, 0.00, 0.00, 0.00, 0.00, 0.00, 0.000, 0.000, 0.000, 15:55:14.297, 1563393314297
51, 515.88, 0.00, 0.00, 0.00, 0.00, 0.00, 0.00, 0.00, 0.000, 0.000, 0.000, 15:55:14.297, 1563393314297
52, 514.69, 0.00, 0.00, 0.00, 0.00, 0.00, 0.00, 0.00, 0.000, 0.000, 0.000, 15:55:14.297, 1563393314297
53, 514.94, 0.00, 0.00, 0.00, 0.00, 0.00, 0.00, 0.00, 0.000, 0.000, 0.000, 15:55:14.297, 1563393314297
54, 536.13, 0.00, 0.00, 0.00, 0.00, 0.00, 0.00, 0.00, 0.098, 0.022, 1.022, 15:55:14.297, 1563393314297
55, 507.90, 0.00, 0.00, 0.00, 0.00, 0.00, 0.00, 0.00, 0.000, 0.000, 0.000, 15:55:14.297, 1563393314297
56, 509.17, 0.00, 0.00, 0.00, 0.00, 0.00, 0.00, 0.00, 0.000, 0.000, 0.000, 15:55:14.297, 1563393314297
57, 508.73, 0.00, 0.00, 0.00, 0.00, 0.00, 0.00, 0.00, 0.000, 0.000, 0.000, 15:55:14.297, 1563393314297
58, 517.76, 0.00, 0.00, 0.00, 0.00, 0.00, 0.00, 0.00, 0.000, 0.000, 0.000, 15:55:14.297, 1563393314297
59, 491.54, 0.00, 0.00, 0.00, 0.00, 0.00, 0.00, 0.00, 0.000, 0.000, 0.000, 15:55:14.297, 1563393314297
60, 479.91, 0.00, 0.00, 0.00, 0.00, 0.00, 0.00, 0.00, 0.000, 0.000, 0.000, 15:55:14.297, 1563393314297
61, 503.23, 0.00, 0.00, 0.00, 0.00, 0.00, 0.00, 0.00, 0.000, 0.000, 0.000, 15:55:14.297, 1563393314297
62, 510.76, 0.00, 0.00, 0.00, 0.00, 0.00, 0.00, 0.00, 0.000, 0.000, 0.000, 15:55:14.297, 1563393314297
63, 509.80, 0.00, 0.00, 0.00, 0.00, 0.00, 0.00, 0.00, 0.000, 0.000, 0.000, 15:55:14.297, 1563393314297
64, 499.25, 0.00, 0.00, 0.00, 0.00, 0.00, 0.00, 0.00, 0.104, 0.022, 1.020, 15:55:14.297, 1563393314297
65, 472.23, 0.00, 0.00, 0.00, 0.00, 0.00, 0.00, 0.00, 0.000, 0.000, 0.000, 15:55:14.297, 1563393314297
66, 476.03, 0.00, 0.00, 0.00, 0.00, 0.00, 0.00, 0.00, 0.000, 0.000, 0.000, 15:55:14.297, 1563393314297
67, 499.32, 0.00, 0.00, 0.00, 0.00, 0.00, 0.00, 0.00, 0.000, 0.000, 0.000, 15:55:14.297, 1563393314297
68, 486.13, 0.00, 0.00, 0.00, 0.00, 0.00, 0.00, 0.00, 0.000, 0.000, 0.000, 15:55:14.298, 1563393314298
69, 467.40, 0.00, 0.00, 0.00, 0.00, 0.00, 0.00, 0.00, 0.000, 0.000, 0.000, 15:55:14.298, 1563393314298
70, 484.63, 0.00, 0.00, 0.00, 0.00, 0.00, 0.00, 0.00, 0.000, 0.000, 0.000, 15:55:14.298, 1563393314298
71, 501.55, 0.00, 0.00, 0.00, 0.00, 0.00, 0.00, 0.00, 0.000, 0.000, 0.000, 15:55:14.298, 1563393314298
72, 503.81, 0.00, 0.00, 0.00, 0.00, 0.00, 0.00, 0.00, 0.000, 0.000, 0.000, 15:55:14.298, 1563393314298
73, 487.96, 0.00, 0.00, 0.00, 0.00, 0.00, 0.00, 0.00, 0.000, 0.000, 0.000, 15:55:14.298, 1563393314298
74, 496.12, 0.00, 0.00, 0.00, 0.00, 0.00, 0.00, 0.00, 0.106, 0.020, 1.020, 15:55:14.773, 1563393314773
75, 507.27, 0.00, 0.00, 0.00, 0.00, 0.00, 0.00, 0.00, 0.000, 0.000, 0.000, 15:55:14.773, 1563393314773
76, 486.89, 0.00, 0.00, 0.00, 0.00, 0.00, 0.00, 0.00, 0.000, 0.000, 0.000, 15:55:14.773, 1563393314773
77, 486.58, 0.00, 0.00, 0.00, 0.00, 0.00, 0.00, 0.00, 0.000, 0.000, 0.000, 15:55:14.773, 1563393314773
78, 510.98, 0.00, 0.00, 0.00, 0.00, 0.00, 0.00, 0.00, 0.000, 0.000, 0.000, 15:55:14.774, 1563393314774
79, 535.35, 0.00, 0.00, 0.00, 0.00, 0.00, 0.00, 0.00, 0.000, 0.000, 0.000, 15:55:14.774, 1563393314774
80, 507.72, 0.00, 0.00, 0.00, 0.00, 0.00, 0.00, 0.00, 0.000, 0.000, 0.000, 15:55:14.774, 1563393314774
81, 505.69, 0.00, 0.00, 0.00, 0.00, 0.00, 0.00, 0.00, 0.000, 0.000, 0.000, 15:55:14.774, 1563393314774
82, 516.41, 0.00, 0.00, 0.00, 0.00, 0.00, 0.00, 0.00, 0.000, 0.000, 0.000, 15:55:14.774, 1563393314774
83, 537.13, 0.00, 0.00, 0.00, 0.00, 0.00, 0.00, 0.00, 0.000, 0.000, 0.000, 15:55:14.774, 1563393314774
84, 521.96, 0.00, 0.00, 0.00, 0.00, 0.00, 0.00, 0.00, 0.000, 0.000, 0.000, 15:55:14.774, 1563393314774
85, 497.55, 0.00, 0.00, 0.00, 0.00, 0.00, 0.00, 0.00, 0.102, 0.024, 1.018, 15:55:14.774, 1563393314774
86, 500.81, 0.00, 0.00, 0.00, 0.00, 0.00, 0.00, 0.00, 0.000, 0.000, 0.000, 15:55:14.774, 1563393314774
87, 506.89, 0.00, 0.00, 0.00, 0.00, 0.00, 0.00, 0.00, 0.000, 0.000, 0.000, 15:55:14.774, 1563393314774
88, 498.40, 0.00, 0.00, 0.00, 0.00, 0.00, 0.00, 0.00, 0.000, 0.000, 0.000, 15:55:14.774, 1563393314774
89, 491.69, 0.00, 0.00, 0.00, 0.00, 0.00, 0.00, 0.00, 0.000, 0.000, 0.000, 15:55:14.774, 1563393314774
90, 494.22, 0.00, 0.00, 0.00, 0.00, 0.00, 0.00, 0.00, 0.000, 0.000, 0.000, 15:55:14.774, 1563393314774
91, 505.73, 0.00, 0.00, 0.00, 0.00, 0.00, 0.00, 0.00, 0.000, 0.000, 0.000, 15:55:14.774, 1563393314774
92, 484.00, 0.00, 0.00, 0.00, 0.00, 0.00, 0.00, 0.00, 0.000, 0.000, 0.000, 15:55:14.774, 1563393314774
93, 466.61, 0.00, 0.00, 0.00, 0.00, 0.00, 0.00, 0.00, 0.000, 0.000, 0.000, 15:55:14.774, 1563393314774
94, 475.09, 0.00, 0.00, 0.00, 0.00, 0.00, 0.00, 0.00, 0.000, 0.000, 0.000, 15:55:14.774, 1563393314774
95, 492.27, 0.00, 0.00, 0.00, 0.00, 0.00, 0.00, 0.00, 0.106, 0.022, 1.024, 15:55:14.774, 1563393314774
96, 489.64, 0.00, 0.00, 0.00, 0.00, 0.00, 0.00, 0.00, 0.000, 0.000, 0.000, 15:55:14.774, 1563393314774
97, 484.07, 0.00, 0.00, 0.00, 0.00, 0.00, 0.00, 0.00, 0.000, 0.000, 0.000, 15:55:14.774, 1563393314774
98, 479.94, 0.00, 0.00, 0.00, 0.00, 0.00, 0.00, 0.00, 0.000, 0.000, 0.000, 15:55:14.774, 1563393314774
99, 493.44, 0.00, 0.00, 0.00, 0.00, 0.00, 0.00, 0.00, 0.000, 0.000, 0.000, 15:55:14.774, 1563393314774
100, 487.40, 0.00, 0.00, 0.00, 0.00, 0.00, 0.00, 0.00, 0.000, 0.000, 0.000, 15:55:14.774, 1563393314774
101, 486.46, 0.00, 0.00, 0.00, 0.00, 0.00, 0.00, 0.00, 0.000, 0.000, 0.000, 15:55:14.774, 1563393314774
102, 488.92, 0.00, 0.00, 0.00, 0.00, 0.00, 0.00, 0.00, 0.000, 0.000, 0.000, 15:55:14.774, 1563393314774
103, 490.20, 0.00, 0.00, 0.00, 0.00, 0.00, 0.00, 0.00, 0.000, 0.000, 0.000, 15:55:14.774, 1563393314774
104, 505.10, 0.00, 0.00, 0.00, 0.00, 0.00, 0.00, 0.00, 0.000, 0.000, 0.000, 15:55:14.774, 1563393314774
105, 498.98, 0.00, 0.00, 0.00, 0.00, 0.00, 0.00, 0.00, 0.104, 0.024, 1.022, 15:55:14.774, 1563393314774
106, 504.26, 0.00, 0.00, 0.00, 0.00, 0.00, 0.00, 0.00, 0.000, 0.000, 0.000, 15:55:14.775, 1563393314775
107, 495.85, 0.00, 0.00, 0.00, 0.00, 0.00, 0.00, 0.00, 0.000, 0.000, 0.000, 15:55:14.775, 1563393314775
108, 493.86, 0.00, 0.00, 0.00, 0.00, 0.00, 0.00, 0.00, 0.000, 0.000, 0.000, 15:55:14.775, 1563393314775
109, 489.66, 0.00, 0.00, 0.00, 0.00, 0.00, 0.00, 0.00, 0.000, 0.000, 0.000, 15:55:14.775, 1563393314775
110, 485.10, 0.00, 0.00, 0.00, 0.00, 0.00, 0.00, 0.00, 0.000, 0.000, 0.000, 15:55:14.775, 1563393314775
111, 483.33, 0.00, 0.00, 0.00, 0.00, 0.00, 0.00, 0.00, 0.000, 0.000, 0.000, 15:55:14.775, 1563393314775
112, 487.74, 0.00, 0.00, 0.00, 0.00, 0.00, 0.00, 0.00, 0.000, 0.000, 0.000, 15:55:14.775, 1563393314775
113, 482.71, 0.00, 0.00, 0.00, 0.00, 0.00, 0.00, 0.00, 0.000, 0.000, 0.000, 15:55:14.775, 1563393314775
114, 489.77, 0.00, 0.00, 0.00, 0.00, 0.00, 0.00, 0.00, 0.000, 0.000, 0.000, 15:55:14.775, 1563393314775
115, 497.13, 0.00, 0.00, 0.00, 0.00, 0.00, 0.00, 0.00, 0.102, 0.022, 1.022, 15:55:14.775, 1563393314775
116, 502.78, 0.00, 0.00, 0.00, 0.00, 0.00, 0.00, 0.00, 0.000, 0.000, 0.000, 15:55:14.775, 1563393314775
117, 510.65, 0.00, 0.00, 0.00, 0.00, 0.00, 0.00, 0.00, 0.000, 0.000, 0.000, 15:55:14.775, 1563393314775
118, 500.63, 0.00, 0.00, 0.00, 0.00, 0.00, 0.00, 0.00, 0.000, 0.000, 0.000, 15:55:14.775, 1563393314775
119, 480.81, 0.00, 0.00, 0.00, 0.00, 0.00, 0.00, 0.00, 0.000, 0.000, 0.000, 15:55:14.775, 1563393314775
120, 512.59, 0.00, 0.00, 0.00, 0.00, 0.00, 0.00, 0.00, 0.000, 0.000, 0.000, 15:55:14.775, 1563393314775
121, 522.56, 0.00, 0.00, 0.00, 0.00, 0.00, 0.00, 0.00, 0.000, 0.000, 0.000, 15:55:14.775, 1563393314775
122, 492.83, 0.00, 0.00, 0.00, 0.00, 0.00, 0.00, 0.00, 0.000, 0.000, 0.000, 15:55:14.775, 1563393314775
123, 493.19, 0.00, 0.00, 0.00, 0.00, 0.00, 0.00, 0.00, 0.000, 0.000, 0.000, 15:55:14.775, 1563393314775
124, 506.58, 0.00, 0.00, 0.00, 0.00, 0.00, 0.00, 0.00, 0.000, 0.000, 0.000, 15:55:14.775, 1563393314775
125, 519.70, 0.00, 0.00, 0.00, 0.00, 0.00, 0.00, 0.00, 0.102, 0.024, 1.026, 15:55:14.775, 1563393314775
126, 521.04, 0.00, 0.00, 0.00, 0.00, 0.00, 0.00, 0.00, 0.000, 0.000, 0.000, 15:55:14.775, 1563393314775
127, 501.98, 0.00, 0.00, 0.00, 0.00, 0.00, 0.00, 0.00, 0.000, 0.000, 0.000, 15:55:14.775, 1563393314775
128, 492.16, 0.00, 0.00, 0.00, 0.00, 0.00, 0.00, 0.00, 0.000, 0.000, 0.000, 15:55:14.775, 1563393314775
129, 498.53, 0.00, 0.00, 0.00, 0.00, 0.00, 0.00, 0.00, 0.000, 0.000, 0.000, 15:55:14.776, 1563393314776
130, 495.92, 0.00, 0.00, 0.00, 0.00, 0.00, 0.00, 0.00, 0.000, 0.000, 0.000, 15:55:14.776, 1563393314776
131, 484.68, 0.00, 0.00, 0.00, 0.00, 0.00, 0.00, 0.00, 0.000, 0.000, 0.000, 15:55:14.776, 1563393314776
132, 484.05, 0.00, 0.00, 0.00, 0.00, 0.00, 0.00, 0.00, 0.000, 0.000, 0.000, 15:55:14.776, 1563393314776
133, 485.82, 0.00, 0.00, 0.00, 0.00, 0.00, 0.00, 0.00, 0.000, 0.000, 0.000, 15:55:14.776, 1563393314776
134, 480.47, 0.00, 0.00, 0.00, 0.00, 0.00, 0.00, 0.00, 0.000, 0.000, 0.000, 15:55:14.776, 1563393314776
135, 477.95, 0.00, 0.00, 0.00, 0.00, 0.00, 0.00, 0.00, 0.000, 0.000, 0.000, 15:55:14.776, 1563393314776
136, 494.42, 0.00, 0.00, 0.00, 0.00, 0.00, 0.00, 0.00, 0.106, 0.024, 1.024, 15:55:14.776, 1563393314776
137, 479.65, 0.00, 0.00, 0.00, 0.00, 0.00, 0.00, 0.00, 0.000, 0.000, 0.000, 15:55:14.776, 1563393314776
138, 469.81, 0.00, 0.00, 0.00, 0.00, 0.00, 0.00, 0.00, 0.000, 0.000, 0.000, 15:55:14.776, 1563393314776
139, 489.30, 0.00, 0.00, 0.00, 0.00, 0.00, 0.00, 0.00, 0.000, 0.000, 0.000, 15:55:14.776, 1563393314776
140, 490.26, 0.00, 0.00, 0.00, 0.00, 0.00, 0.00, 0.00, 0.000, 0.000, 0.000, 15:55:14.776, 1563393314776
141, 494.55, 0.00, 0.00, 0.00, 0.00, 0.00, 0.00, 0.00, 0.000, 0.000, 0.000, 15:55:14.776, 1563393314776
142, 495.14, 0.00, 0.00, 0.00, 0.00, 0.00, 0.00, 0.00, 0.000, 0.000, 0.000, 15:55:14.776, 1563393314776
143, 485.35, 0.00, 0.00, 0.00, 0.00, 0.00, 0.00, 0.00, 0.000, 0.000, 0.000, 15:55:14.777, 1563393314777
144, 489.88, 0.00, 0.00, 0.00, 0.00, 0.00, 0.00, 0.00, 0.000, 0.000, 0.000, 15:55:14.777, 1563393314777
145, 500.97, 0.00, 0.00, 0.00, 0.00, 0.00, 0.00, 0.00, 0.000, 0.000, 0.000, 15:55:14.777, 1563393314777
146, 506.02, 0.00, 0.00, 0.00, 0.00, 0.00, 0.00, 0.00, 0.108, 0.022, 1.022, 15:55:14.777, 1563393314777
147, 475.42, 0.00, 0.00, 0.00, 0.00, 0.00, 0.00, 0.00, 0.000, 0.000, 0.000, 15:55:14.777, 1563393314777
148, 484.45, 0.00, 0.00, 0.00, 0.00, 0.00, 0.00, 0.00, 0.000, 0.000, 0.000, 15:55:14.777, 1563393314777
149, 493.44, 0.00, 0.00, 0.00, 0.00, 0.00, 0.00, 0.00, 0.000, 0.000, 0.000, 15:55:14.777, 1563393314777
150, 480.32, 0.00, 0.00, 0.00, 0.00, 0.00, 0.00, 0.00, 0.000, 0.000, 0.000, 15:55:14.777, 1563393314777
151, 457.41, 0.00, 0.00, 0.00, 0.00, 0.00, 0.00, 0.00, 0.000, 0.000, 0.000, 15:55:14.777, 1563393314777
152, 445.27, 0.00, 0.00, 0.00, 0.00, 0.00, 0.00, 0.00, 0.000, 0.000, 0.000, 15:55:14.777, 1563393314777
153, 466.73, 0.00, 0.00, 0.00, 0.00, 0.00, 0.00, 0.00, 0.000, 0.000, 0.000, 15:55:14.778, 1563393314778
154, 486.22, 0.00, 0.00, 0.00, 0.00, 0.00, 0.00, 0.00, 0.000, 0.000, 0.000, 15:55:14.778, 1563393314778
155, 469.50, 0.00, 0.00, 0.00, 0.00, 0.00, 0.00, 0.00, 0.000, 0.000, 0.000, 15:55:14.778, 1563393314778
156, 454.05, 0.00, 0.00, 0.00, 0.00, 0.00, 0.00, 0.00, 0.106, 0.022, 1.028, 15:55:14.778, 1563393314778
157, 449.58, 0.00, 0.00, 0.00, 0.00, 0.00, 0.00, 0.00, 0.000, 0.000, 0.000, 15:55:14.778, 1563393314778
158, 438.74, 0.00, 0.00, 0.00, 0.00, 0.00, 0.00, 0.00, 0.000, 0.000, 0.000, 15:55:14.778, 1563393314778
159, 420.88, 0.00, 0.00, 0.00, 0.00, 0.00, 0.00, 0.00, 0.000, 0.000, 0.000, 15:55:14.778, 1563393314778
160, 420.68, 0.00, 0.00, 0.00, 0.00, 0.00, 0.00, 0.00, 0.000, 0.000, 0.000, 15:55:14.778, 1563393314778
161, 438.94, 0.00, 0.00, 0.00, 0.00, 0.00, 0.00, 0.00, 0.000, 0.000, 0.000, 15:55:14.779, 1563393314779
162, 451.24, 0.00, 0.00, 0.00, 0.00, 0.00, 0.00, 0.00, 0.000, 0.000, 0.000, 15:55:14.779, 1563393314779
163, 444.44, 0.00, 0.00, 0.00, 0.00, 0.00, 0.00, 0.00, 0.000, 0.000, 0.000, 15:55:14.779, 1563393314779
164, 451.97, 0.00, 0.00, 0.00, 0.00, 0.00, 0.00, 0.00, 0.000, 0.000, 0.000, 15:55:14.779, 1563393314779
165, 463.44, 0.00, 0.00, 0.00, 0.00, 0.00, 0.00, 0.00, 0.000, 0.000, 0.000, 15:55:14.779, 1563393314779
166, 486.44, 0.00, 0.00, 0.00, 0.00, 0.00, 0.00, 0.00, 0.106, 0.022, 1.026, 15:55:14.779, 1563393314779
167, 500.77, 0.00, 0.00, 0.00, 0.00, 0.00, 0.00, 0.00, 0.000, 0.000, 0.000, 15:55:14.779, 1563393314779
168, 488.41, 0.00, 0.00, 0.00, 0.00, 0.00, 0.00, 0.00, 0.000, 0.000, 0.000, 15:55:14.779, 1563393314779
169, 472.87, 0.00, 0.00, 0.00, 0.00, 0.00, 0.00, 0.00, 0.000, 0.000, 0.000, 15:55:14.779, 1563393314779
170, 468.69, 0.00, 0.00, 0.00, 0.00, 0.00, 0.00, 0.00, 0.000, 0.000, 0.000, 15:55:14.779, 1563393314779
171, 486.69, 0.00, 0.00, 0.00, 0.00, 0.00, 0.00, 0.00, 0.000, 0.000, 0.000, 15:55:14.779, 1563393314779
172, 498.40, 0.00, 0.00, 0.00, 0.00, 0.00, 0.00, 0.00, 0.000, 0.000, 0.000, 15:55:14.779, 1563393314779
173, 500.25, 0.00, 0.00, 0.00, 0.00, 0.00, 0.00, 0.00, 0.000, 0.000, 0.000, 15:55:14.779, 1563393314779
174, 503.83, 0.00, 0.00, 0.00, 0.00, 0.00, 0.00, 0.00, 0.000, 0.000, 0.000, 15:55:14.779, 1563393314779
175, 479.58, 0.00, 0.00, 0.00, 0.00, 0.00, 0.00, 0.00, 0.000, 0.000, 0.000, 15:55:14.779, 1563393314779
176, 469.45, 0.00, 0.00, 0.00, 0.00, 0.00, 0.00, 0.00, 0.102, 0.024, 1.022, 15:55:14.779, 1563393314779
177, 473.95, 0.00, 0.00, 0.00, 0.00, 0.00, 0.00, 0.00, 0.000, 0.000, 0.000, 15:55:14.779, 1563393314779
178, 474.28, 0.00, 0.00, 0.00, 0.00, 0.00, 0.00, 0.00, 0.000, 0.000, 0.000, 15:55:14.779, 1563393314779
179, 490.75, 0.00, 0.00, 0.00, 0.00, 0.00, 0.00, 0.00, 0.000, 0.000, 0.000, 15:55:14.779, 1563393314779
180, 477.68, 0.00, 0.00, 0.00, 0.00, 0.00, 0.00, 0.00, 0.000, 0.000, 0.000, 15:55:14.779, 1563393314779
181, 468.36, 0.00, 0.00, 0.00, 0.00, 0.00, 0.00, 0.00, 0.000, 0.000, 0.000, 15:55:14.779, 1563393314779
182, 486.06, 0.00, 0.00, 0.00, 0.00, 0.00, 0.00, 0.00, 0.000, 0.000, 0.000, 15:55:14.779, 1563393314779
183, 515.12, 0.00, 0.00, 0.00, 0.00, 0.00, 0.00, 0.00, 0.000, 0.000, 0.000, 15:55:14.779, 1563393314779
184, 488.97, 0.00, 0.00, 0.00, 0.00, 0.00, 0.00, 0.00, 0.000, 0.000, 0.000, 15:55:14.779, 1563393314779
185, 464.45, 0.00, 0.00, 0.00, 0.00, 0.00, 0.00, 0.00, 0.000, 0.000, 0.000, 15:55:14.779, 1563393314779
186, 498.78, 0.00, 0.00, 0.00, 0.00, 0.00, 0.00, 0.00, 0.102, 0.024, 1.024, 15:55:14.779, 1563393314779
187, 517.91, 0.00, 0.00, 0.00, 0.00, 0.00, 0.00, 0.00, 0.000, 0.000, 0.000, 15:55:14.779, 1563393314779
188, 486.78, 0.00, 0.00, 0.00, 0.00, 0.00, 0.00, 0.00, 0.000, 0.000, 0.000, 15:55:14.780, 1563393314780
189, 488.92, 0.00, 0.00, 0.00, 0.00, 0.00, 0.00, 0.00, 0.000, 0.000, 0.000, 15:55:14.780, 1563393314780
190, 499.81, 0.00, 0.00, 0.00, 0.00, 0.00, 0.00, 0.00, 0.000, 0.000, 0.000, 15:55:14.780, 1563393314780
191, 515.19, 0.00, 0.00, 0.00, 0.00, 0.00, 0.00, 0.00, 0.000, 0.000, 0.000, 15:55:14.780, 1563393314780
192, 535.91, 0.00, 0.00, 0.00, 0.00, 0.00, 0.00, 0.00, 0.000, 0.000, 0.000, 15:55:14.780, 1563393314780
193, 529.20, 0.00, 0.00, 0.00, 0.00, 0.00, 0.00, 0.00, 0.000, 0.000, 0.000, 15:55:14.780, 1563393314780
194, 524.80, 0.00, 0.00, 0.00, 0.00, 0.00, 0.00, 0.00, 0.000, 0.000, 0.000, 15:55:15.255, 1563393315255
195, 535.53, 0.00, 0.00, 0.00, 0.00, 0.00, 0.00, 0.00, 0.000, 0.000, 0.000, 15:55:15.255, 1563393315255
196, 542.59, 0.00, 0.00, 0.00, 0.00, 0.00, 0.00, 0.00, 0.000, 0.000, 0.000, 15:55:15.255, 1563393315255
197, 536.37, 0.00, 0.00, 0.00, 0.00, 0.00, 0.00, 0.00, 0.096, 0.018, 1.026, 15:55:15.255, 1563393315255
198, 547.17, 0.00, 0.00, 0.00, 0.00, 0.00, 0.00, 0.00, 0.000, 0.000, 0.000, 15:55:15.255, 1563393315255
199, 567.67, 0.00, 0.00, 0.00, 0.00, 0.00, 0.00, 0.00, 0.000, 0.000, 0.000, 15:55:15.255, 1563393315255
200, 582.98, 0.00, 0.00, 0.00, 0.00, 0.00, 0.00, 0.00, 0.000, 0.000, 0.000, 15:55:15.255, 1563393315255
201, 543.73, 0.00, 0.00, 0.00, 0.00, 0.00, 0.00, 0.00, 0.000, 0.000, 0.000, 15:55:15.255, 1563393315255
202, 532.84, 0.00, 0.00, 0.00, 0.00, 0.00, 0.00, 0.00, 0.000, 0.000, 0.000, 15:55:15.255, 1563393315255
203, 543.08, 0.00, 0.00, 0.00, 0.00, 0.00, 0.00, 0.00, 0.000, 0.000, 0.000, 15:55:15.255, 1563393315255
204, 553.43, 0.00, 0.00, 0.00, 0.00, 0.00, 0.00, 0.00, 0.000, 0.000, 0.000, 15:55:15.255, 1563393315255
205, 542.81, 0.00, 0.00, 0.00, 0.00, 0.00, 0.00, 0.00, 0.000, 0.000, 0.000, 15:55:15.255, 1563393315255
206, 506.96, 0.00, 0.00, 0.00, 0.00, 0.00, 0.00, 0.00, 0.000, 0.000, 0.000, 15:55:15.255, 1563393315255
207, 490.93, 0.00, 0.00, 0.00, 0.00, 0.00, 0.00, 0.00, 0.092, 0.020, 1.018, 15:55:15.255, 1563393315255
208, 497.64, 0.00, 0.00, 0.00, 0.00, 0.00, 0.00, 0.00, 0.000, 0.000, 0.000, 15:55:15.255, 1563393315255
209, 476.81, 0.00, 0.00, 0.00, 0.00, 0.00, 0.00, 0.00, 0.000, 0.000, 0.000, 15:55:15.255, 1563393315255
210, 471.47, 0.00, 0.00, 0.00, 0.00, 0.00, 0.00, 0.00, 0.000, 0.000, 0.000, 15:55:15.255, 1563393315255
211, 481.93, 0.00, 0.00, 0.00, 0.00, 0.00, 0.00, 0.00, 0.000, 0.000, 0.000, 15:55:15.255, 1563393315255
212, 509.69, 0.00, 0.00, 0.00, 0.00, 0.00, 0.00, 0.00, 0.000, 0.000, 0.000, 15:55:15.255, 1563393315255
213, 486.33, 0.00, 0.00, 0.00, 0.00, 0.00, 0.00, 0.00, 0.000, 0.000, 0.000, 15:55:15.255, 1563393315255
214, 478.93, 0.00, 0.00, 0.00, 0.00, 0.00, 0.00, 0.00, 0.000, 0.000, 0.000, 15:55:15.255, 1563393315255
215, 477.28, 0.00, 0.00, 0.00, 0.00, 0.00, 0.00, 0.00, 0.000, 0.000, 0.000, 15:55:15.256, 1563393315256
216, 465.65, 0.00, 0.00, 0.00, 0.00, 0.00, 0.00, 0.00, 0.000, 0.000, 0.000, 15:55:15.256, 1563393315256
217, 443.93, 0.00, 0.00, 0.00, 0.00, 0.00, 0.00, 0.00, 0.094, 0.022, 1.024, 15:55:15.256, 1563393315256
218, 438.94, 0.00, 0.00, 0.00, 0.00, 0.00, 0.00, 0.00, 0.000, 0.000, 0.000, 15:55:15.256, 1563393315256
219, 446.45, 0.00, 0.00, 0.00, 0.00, 0.00, 0.00, 0.00, 0.000, 0.000, 0.000, 15:55:15.256, 1563393315256
220, 457.79, 0.00, 0.00, 0.00, 0.00, 0.00, 0.00, 0.00, 0.000, 0.000, 0.000, 15:55:15.256, 1563393315256
221, 460.58, 0.00, 0.00, 0.00, 0.00, 0.00, 0.00, 0.00, 0.000, 0.000, 0.000, 15:55:15.256, 1563393315256
222, 465.90, 0.00, 0.00, 0.00, 0.00, 0.00, 0.00, 0.00, 0.000, 0.000, 0.000, 15:55:15.256, 1563393315256
223, 469.34, 0.00, 0.00, 0.00, 0.00, 0.00, 0.00, 0.00, 0.000, 0.000, 0.000, 15:55:15.256, 1563393315256
224, 439.93, 0.00, 0.00, 0.00, 0.00, 0.00, 0.00, 0.00, 0.000, 0.000, 0.000, 15:55:15.256, 1563393315256
225, 463.87, 0.00, 0.00, 0.00, 0.00, 0.00, 0.00, 0.00, 0.000, 0.000, 0.000, 15:55:15.256, 1563393315256
226, 471.53, 0.00, 0.00, 0.00, 0.00, 0.00, 0.00, 0.00, 0.000, 0.000, 0.000, 15:55:15.256, 1563393315256
227, 437.98, 0.00, 0.00, 0.00, 0.00, 0.00, 0.00, 0.00, 0.100, 0.026, 1.022, 15:55:15.256, 1563393315256
228, 446.16, 0.00, 0.00, 0.00, 0.00, 0.00, 0.00, 0.00, 0.000, 0.000, 0.000, 15:55:15.256, 1563393315256
229, 483.04, 0.00, 0.00, 0.00, 0.00, 0.00, 0.00, 0.00, 0.000, 0.000, 0.000, 15:55:15.256, 1563393315256
230, 473.10, 0.00, 0.00, 0.00, 0.00, 0.00, 0.00, 0.00, 0.000, 0.000, 0.000, 15:55:15.256, 1563393315256
231, 450.72, 0.00, 0.00, 0.00, 0.00, 0.00, 0.00, 0.00, 0.000, 0.000, 0.000, 15:55:15.256, 1563393315256
232, 464.16, 0.00, 0.00, 0.00, 0.00, 0.00, 0.00, 0.00, 0.000, 0.000, 0.000, 15:55:15.256, 1563393315256
233, 480.20, 0.00, 0.00, 0.00, 0.00, 0.00, 0.00, 0.00, 0.000, 0.000, 0.000, 15:55:15.256, 1563393315256
234, 472.25, 0.00, 0.00, 0.00, 0.00, 0.00, 0.00, 0.00, 0.000, 0.000, 0.000, 15:55:15.256, 1563393315256
235, 469.14, 0.00, 0.00, 0.00, 0.00, 0.00, 0.00, 0.00, 0.000, 0.000, 0.000, 15:55:15.256, 1563393315256
236, 481.95, 0.00, 0.00, 0.00, 0.00, 0.00, 0.00, 0.00, 0.000, 0.000, 0.000, 15:55:15.256, 1563393315256
237, 490.40, 0.00, 0.00, 0.00, 0.00, 0.00, 0.00, 0.00, 0.102, 0.026, 1.022, 15:55:15.256, 1563393315256
238, 491.13, 0.00, 0.00, 0.00, 0.00, 0.00, 0.00, 0.00, 0.000, 0.000, 0.000, 15:55:15.256, 1563393315256
239, 486.66, 0.00, 0.00, 0.00, 0.00, 0.00, 0.00, 0.00, 0.000, 0.000, 0.000, 15:55:15.256, 1563393315256
240, 491.29, 0.00, 0.00, 0.00, 0.00, 0.00, 0.00, 0.00, 0.000, 0.000, 0.000, 15:55:15.256, 1563393315256
241, 491.67, 0.00, 0.00, 0.00, 0.00, 0.00, 0.00, 0.00, 0.000, 0.000, 0.000, 15:55:15.256, 1563393315256
242, 478.13, 0.00, 0.00, 0.00, 0.00, 0.00, 0.00, 0.00, 0.000, 0.000, 0.000, 15:55:15.256, 1563393315256
243, 451.68, 0.00, 0.00, 0.00, 0.00, 0.00, 0.00, 0.00, 0.000, 0.000, 0.000, 15:55:15.256, 1563393315256
244, 465.61, 0.00, 0.00, 0.00, 0.00, 0.00, 0.00, 0.00, 0.000, 0.000, 0.000, 15:55:15.257, 1563393315257
245, 507.03, 0.00, 0.00, 0.00, 0.00, 0.00, 0.00, 0.00, 0.000, 0.000, 0.000, 15:55:15.257, 1563393315257
246, 476.63, 0.00, 0.00, 0.00, 0.00, 0.00, 0.00, 0.00, 0.000, 0.000, 0.000, 15:55:15.257, 1563393315257
247, 456.38, 0.00, 0.00, 0.00, 0.00, 0.00, 0.00, 0.00, 0.000, 0.000, 0.000, 15:55:15.257, 1563393315257
248, 472.20, 0.00, 0.00, 0.00, 0.00, 0.00, 0.00, 0.00, 0.102, 0.024, 1.026, 15:55:15.257, 1563393315257
249, 480.88, 0.00, 0.00, 0.00, 0.00, 0.00, 0.00, 0.00, 0.000, 0.000, 0.000, 15:55:15.257, 1563393315257
250, 476.27, 0.00, 0.00, 0.00, 0.00, 0.00, 0.00, 0.00, 0.000, 0.000, 0.000, 15:55:15.257, 1563393315257
251, 456.74, 0.00, 0.00, 0.00, 0.00, 0.00, 0.00, 0.00, 0.000, 0.000, 0.000, 15:55:15.257, 1563393315257
252, 448.40, 0.00, 0.00, 0.00, 0.00, 0.00, 0.00, 0.00, 0.000, 0.000, 0.000, 15:55:15.257, 1563393315257
253, 447.77, 0.00, 0.00, 0.00, 0.00, 0.00, 0.00, 0.00, 0.000, 0.000, 0.000, 15:55:15.257, 1563393315257
254, 457.79, 0.00, 0.00, 0.00, 0.00, 0.00, 0.00, 0.00, 0.000, 0.000, 0.000, 15:55:15.257, 1563393315257
255, 459.57, 0.00, 0.00, 0.00, 0.00, 0.00, 0.00, 0.00, 0.000, 0.000, 0.000, 15:55:15.257, 1563393315257
0, 476.54, 0.00, 0.00, 0.00, 0.00, 0.00, 0.00, 0.00, 0.000, 0.000, 0.000, 15:55:15.257, 1563393315257
1, 475.27, 0.00, 0.00, 0.00, 0.00, 0.00, 0.00, 0.00, 0.000, 0.000, 0.000, 15:55:15.257, 1563393315257
2, 473.72, 0.00, 0.00, 0.00, 0.00, 0.00, 0.00, 0.00, 0.106, 0.026, 1.028, 15:55:15.257, 1563393315257
3, 469.74, 0.00, 0.00, 0.00, 0.00, 0.00, 0.00, 0.00, 0.000, 0.000, 0.000, 15:55:15.257, 1563393315257
4, 477.41, 0.00, 0.00, 0.00, 0.00, 0.00, 0.00, 0.00, 0.000, 0.000, 0.000, 15:55:15.257, 1563393315257
5, 483.98, 0.00, 0.00, 0.00, 0.00, 0.00, 0.00, 0.00, 0.000, 0.000, 0.000, 15:55:15.257, 1563393315257
6, 498.38, 0.00, 0.00, 0.00, 0.00, 0.00, 0.00, 0.00, 0.000, 0.000, 0.000, 15:55:15.257, 1563393315257
7, 501.64, 0.00, 0.00, 0.00, 0.00, 0.00, 0.00, 0.00, 0.000, 0.000, 0.000, 15:55:15.257, 1563393315257
8, 459.62, 0.00, 0.00, 0.00, 0.00, 0.00, 0.00, 0.00, 0.000, 0.000, 0.000, 15:55:15.257, 1563393315257
9, 436.86, 0.00, 0.00, 0.00, 0.00, 0.00, 0.00, 0.00, 0.000, 0.000, 0.000, 15:55:15.257, 1563393315257
10, 452.80, 0.00, 0.00, 0.00, 0.00, 0.00, 0.00, 0.00, 0.000, 0.000, 0.000, 15:55:15.257, 1563393315257
11, 455.22, 0.00, 0.00, 0.00, 0.00, 0.00, 0.00, 0.00, 0.000, 0.000, 0.000, 15:55:15.257, 1563393315257
12, 471.26, 0.00, 0.00, 0.00, 0.00, 0.00, 0.00, 0.00, 0.108, 0.020, 1.036, 15:55:15.257, 1563393315257
13, 475.27, 0.00, 0.00, 0.00, 0.00, 0.00, 0.00, 0.00, 0.000, 0.000, 0.000, 15:55:15.257, 1563393315257
14, 458.61, 0.00, 0.00, 0.00, 0.00, 0.00, 0.00, 0.00, 0.000, 0.000, 0.000, 15:55:15.257, 1563393315257
15, 447.82, 0.00, 0.00, 0.00, 0.00, 0.00, 0.00, 0.00, 0.000, 0.000, 0.000, 15:55:15.257, 1563393315257
16, 452.94, 0.00, 0.00, 0.00, 0.00, 0.00, 0.00, 0.00, 0.000, 0.000, 0.000, 15:55:15.257, 1563393315257
17, 437.56, 0.00, 0.00, 0.00, 0.00, 0.00, 0.00, 0.00, 0.000, 0.000, 0.000, 15:55:15.258, 1563393315258
18, 444.64, 0.00, 0.00, 0.00, 0.00, 0.00, 0.00, 0.00, 0.000, 0.000, 0.000, 15:55:15.258, 1563393315258
19, 456.51, 0.00, 0.00, 0.00, 0.00, 0.00, 0.00, 0.00, 0.000, 0.000, 0.000, 15:55:15.258, 1563393315258
20, 422.25, 0.00, 0.00, 0.00, 0.00, 0.00, 0.00, 0.00, 0.000, 0.000, 0.000, 15:55:15.258, 1563393315258
21, 426.49, 0.00, 0.00, 0.00, 0.00, 0.00, 0.00, 0.00, 0.000, 0.000, 0.000, 15:55:15.258, 1563393315258
22, 449.07, 0.00, 0.00, 0.00, 0.00, 0.00, 0.00, 0.00, 0.098, 0.024, 1.028, 15:55:15.258, 1563393315258
23, 458.43, 0.00, 0.00, 0.00, 0.00, 0.00, 0.00, 0.00, 0.000, 0.000, 0.000, 15:55:15.258, 1563393315258
24, 436.31, 0.00, 0.00, 0.00, 0.00, 0.00, 0.00, 0.00, 0.000, 0.000, 0.000, 15:55:15.258, 1563393315258
25, 448.91, 0.00, 0.00, 0.00, 0.00, 0.00, 0.00, 0.00, 0.000, 0.000, 0.000, 15:55:15.258, 1563393315258
26, 464.92, 0.00, 0.00, 0.00, 0.00, 0.00, 0.00, 0.00, 0.000, 0.000, 0.000, 15:55:15.258, 1563393315258
27, 464.76, 0.00, 0.00, 0.00, 0.00, 0.00, 0.00, 0.00, 0.000, 0.000, 0.000, 15:55:15.258, 1563393315258
28, 445.89, 0.00, 0.00, 0.00, 0.00, 0.00, 0.00, 0.00, 0.000, 0.000, 0.000, 15:55:15.258, 1563393315258
29, 427.95, 0.00, 0.00, 0.00, 0.00, 0.00, 0.00, 0.00, 0.000, 0.000, 0.000, 15:55:15.258, 1563393315258
30, 451.26, 0.00, 0.00, 0.00, 0.00, 0.00, 0.00, 0.00, 0.000, 0.000, 0.000, 15:55:15.258, 1563393315258
31, 459.28, 0.00, 0.00, 0.00, 0.00, 0.00, 0.00, 0.00, 0.000, 0.000, 0.000, 15:55:15.258, 1563393315258
32, 449.18, 0.00, 0.00, 0.00, 0.00, 0.00, 0.00, 0.00, 0.096, 0.022, 1.024, 15:55:15.258, 1563393315258
33, 444.04, 0.00, 0.00, 0.00, 0.00, 0.00, 0.00, 0.00, 0.000, 0.000, 0.000, 15:55:15.258, 1563393315258
34, 447.35, 0.00, 0.00, 0.00, 0.00, 0.00, 0.00, 0.00, 0.000, 0.000, 0.000, 15:55:15.258, 1563393315258
35, 468.07, 0.00, 0.00, 0.00, 0.00, 0.00, 0.00, 0.00, 0.000, 0.000, 0.000, 15:55:15.258, 1563393315258
36, 472.36, 0.00, 0.00, 0.00, 0.00, 0.00, 0.00, 0.00, 0.000, 0.000, 0.000, 15:55:15.258, 1563393315258
37, 457.65, 0.00, 0.00, 0.00, 0.00, 0.00, 0.00, 0.00, 0.000, 0.000, 0.000, 15:55:15.258, 1563393315258
38, 426.45, 0.00, 0.00, 0.00, 0.00, 0.00, 0.00, 0.00, 0.000, 0.000, 0.000, 15:55:15.259, 1563393315259
39, 420.41, 0.00, 0.00, 0.00, 0.00, 0.00, 0.00, 0.00, 0.000, 0.000, 0.000, 15:55:15.259, 1563393315259
40, 432.44, 0.00, 0.00, 0.00, 0.00, 0.00, 0.00, 0.00, 0.000, 0.000, 0.000, 15:55:15.259, 1563393315259
41, 444.71, 0.00, 0.00, 0.00, 0.00, 0.00, 0.00, 0.00, 0.000, 0.000, 0.000, 15:55:15.259, 1563393315259
42, 463.71, 0.00, 0.00, 0.00, 0.00, 0.00, 0.00, 0.00, 0.000, 0.000, 0.000, 15:55:15.259, 1563393315259
43, 464.74, 0.00, 0.00, 0.00, 0.00, 0.00, 0.00, 0.00, 0.098, 0.018, 1.026, 15:55:15.259, 1563393315259
44, 449.36, 0.00, 0.00, 0.00, 0.00, 0.00, 0.00, 0.00, 0.000, 0.000, 0.000, 15:55:15.259, 1563393315259
45, 425.42, 0.00, 0.00, 0.00, 0.00, 0.00, 0.00, 0.00, 0.000, 0.000, 0.000, 15:55:15.259, 1563393315259
46, 410.00, 0.00, 0.00, 0.00, 0.00, 0.00, 0.00, 0.00, 0.000, 0.000, 0.000, 15:55:15.259, 1563393315259
47, 425.71, 0.00, 0.00, 0.00, 0.00, 0.00, 0.00, 0.00, 0.000, 0.000, 0.000, 15:55:15.259, 1563393315259
48, 456.38, 0.00, 0.00, 0.00, 0.00, 0.00, 0.00, 0.00, 0.000, 0.000, 0.000, 15:55:15.259, 1563393315259
49, 464.80, 0.00, 0.00, 0.00, 0.00, 0.00, 0.00, 0.00, 0.000, 0.000, 0.000, 15:55:15.259, 1563393315259
50, 474.86, 0.00, 0.00, 0.00, 0.00, 0.00, 0.00, 0.00, 0.000, 0.000, 0.000, 15:55:15.259, 1563393315259
51, 477.79, 0.00, 0.00, 0.00, 0.00, 0.00, 0.00, 0.00, 0.000, 0.000, 0.000, 15:55:15.259, 1563393315259
52, 479.24, 0.00, 0.00, 0.00, 0.00, 0.00, 0.00, 0.00, 0.000, 0.000, 0.000, 15:55:15.259, 1563393315259
53, 470.57, 0.00, 0.00, 0.00, 0.00, 0.00, 0.00, 0.00, 0.104, 0.024, 1.026, 15:55:15.259, 1563393315259
54, 469.16, 0.00, 0.00, 0.00, 0.00, 0.00, 0.00, 0.00, 0.000, 0.000, 0.000, 15:55:15.259, 1563393315259
55, 484.88, 0.00, 0.00, 0.00, 0.00, 0.00, 0.00, 0.00, 0.000, 0.000, 0.000, 15:55:15.259, 1563393315259
56, 496.39, 0.00, 0.00, 0.00, 0.00, 0.00, 0.00, 0.00, 0.000, 0.000, 0.000, 15:55:15.259, 1563393315259
57, 493.24, 0.00, 0.00, 0.00, 0.00, 0.00, 0.00, 0.00, 0.000, 0.000, 0.000, 15:55:15.259, 1563393315259
58, 490.11, 0.00, 0.00, 0.00, 0.00, 0.00, 0.00, 0.00, 0.000, 0.000, 0.000, 15:55:15.259, 1563393315259
59, 482.33, 0.00, 0.00, 0.00, 0.00, 0.00, 0.00, 0.00, 0.000, 0.000, 0.000, 15:55:15.738, 1563393315738
60, 463.84, 0.00, 0.00, 0.00, 0.00, 0.00, 0.00, 0.00, 0.000, 0.000, 0.000, 15:55:15.738, 1563393315738
61, 489.12, 0.00, 0.00, 0.00, 0.00, 0.00, 0.00, 0.00, 0.000, 0.000, 0.000, 15:55:15.738, 1563393315738
62, 490.71, 0.00, 0.00, 0.00, 0.00, 0.00, 0.00, 0.00, 0.000, 0.000, 0.000, 15:55:15.738, 1563393315738
63, 482.28, 0.00, 0.00, 0.00, 0.00, 0.00, 0.00, 0.00, 0.100, 0.024, 1.026, 15:55:15.738, 1563393315738
64, 489.30, 0.00, 0.00, 0.00, 0.00, 0.00, 0.00, 0.00, 0.000, 0.000, 0.000, 15:55:15.738, 1563393315738
65, 485.08, 0.00, 0.00, 0.00, 0.00, 0.00, 0.00, 0.00, 0.000, 0.000, 0.000, 15:55:15.738, 1563393315738
66, 470.08, 0.00, 0.00, 0.00, 0.00, 0.00, 0.00, 0.00, 0.000, 0.000, 0.000, 15:55:15.738, 1563393315738
67, 435.72, 0.00, 0.00, 0.00, 0.00, 0.00, 0.00, 0.00, 0.000, 0.000, 0.000, 15:55:15.738, 1563393315738
68, 422.05, 0.00, 0.00, 0.00, 0.00, 0.00, 0.00, 0.00, 0.000, 0.000, 0.000, 15:55:15.738, 1563393315738
69, 417.73, 0.00, 0.00, 0.00, 0.00, 0.00, 0.00, 0.00, 0.000, 0.000, 0.000, 15:55:15.739, 1563393315739
70, 425.96, 0.00, 0.00, 0.00, 0.00, 0.00, 0.00, 0.00, 0.000, 0.000, 0.000, 15:55:15.739, 1563393315739
71, 440.46, 0.00, 0.00, 0.00, 0.00, 0.00, 0.00, 0.00, 0.000, 0.000, 0.000, 15:55:15.739, 1563393315739
72, 439.57, 0.00, 0.00, 0.00, 0.00, 0.00, 0.00, 0.00, 0.000, 0.000, 0.000, 15:55:15.739, 1563393315739
73, 442.07, 0.00, 0.00, 0.00, 0.00, 0.00, 0.00, 0.00, 0.102, 0.024, 1.024, 15:55:15.739, 1563393315739
74, 427.30, 0.00, 0.00, 0.00, 0.00, 0.00, 0.00, 0.00, 0.000, 0.000, 0.000, 15:55:15.739, 1563393315739
75, 426.54, 0.00, 0.00, 0.00, 0.00, 0.00, 0.00, 0.00, 0.000, 0.000, 0.000, 15:55:15.739, 1563393315739
76, 439.01, 0.00, 0.00, 0.00, 0.00, 0.00, 0.00, 0.00, 0.000, 0.000, 0.000, 15:55:15.739, 1563393315739
77, 432.53, 0.00, 0.00, 0.00, 0.00, 0.00, 0.00, 0.00, 0.000, 0.000, 0.000, 15:55:15.739, 1563393315739
78, 415.32, 0.00, 0.00, 0.00, 0.00, 0.00, 0.00, 0.00, 0.000, 0.000, 0.000, 15:55:15.739, 1563393315739
79, 434.72, 0.00, 0.00, 0.00, 0.00, 0.00, 0.00, 0.00, 0.000, 0.000, 0.000, 15:55:15.739, 1563393315739
80, 451.93, 0.00, 0.00, 0.00, 0.00, 0.00, 0.00, 0.00, 0.000, 0.000, 0.000, 15:55:15.739, 1563393315739
81, 458.34, 0.00, 0.00, 0.00, 0.00, 0.00, 0.00, 0.00, 0.000, 0.000, 0.000, 15:55:15.739, 1563393315739
82, 435.21, 0.00, 0.00, 0.00, 0.00, 0.00, 0.00, 0.00, 0.000, 0.000, 0.000, 15:55:15.739, 1563393315739
83, 419.12, 0.00, 0.00, 0.00, 0.00, 0.00, 0.00, 0.00, 0.104, 0.022, 1.022, 15:55:15.739, 1563393315739
84, 424.44, 0.00, 0.00, 0.00, 0.00, 0.00, 0.00, 0.00, 0.000, 0.000, 0.000, 15:55:15.739, 1563393315739
85, 413.13, 0.00, 0.00, 0.00, 0.00, 0.00, 0.00, 0.00, 0.000, 0.000, 0.000, 15:55:15.739, 1563393315739
86, 399.22, 0.00, 0.00, 0.00, 0.00, 0.00, 0.00, 0.00, 0.000, 0.000, 0.000, 15:55:15.739, 1563393315739
87, 411.52, 0.00, 0.00, 0.00, 0.00, 0.00, 0.00, 0.00, 0.000, 0.000, 0.000, 15:55:15.739, 1563393315739
88, 413.06, 0.00, 0.00, 0.00, 0.00, 0.00, 0.00, 0.00, 0.000, 0.000, 0.000, 15:55:15.739, 1563393315739
89, 420.53, 0.00, 0.00, 0.00, 0.00, 0.00, 0.00, 0.00, 0.000, 0.000, 0.000, 15:55:15.739, 1563393315739
90, 428.68, 0.00, 0.00, 0.00, 0.00, 0.00, 0.00, 0.00, 0.000, 0.000, 0.000, 15:55:15.739, 1563393315739
91, 419.48, 0.00, 0.00, 0.00, 0.00, 0.00, 0.00, 0.00, 0.000, 0.000, 0.000, 15:55:15.739, 1563393315739
92, 428.44, 0.00, 0.00, 0.00, 0.00, 0.00, 0.00, 0.00, 0.000, 0.000, 0.000, 15:55:15.739, 1563393315739
93, 423.41, 0.00, 0.00, 0.00, 0.00, 0.00, 0.00, 0.00, 0.000, 0.000, 0.000, 15:55:15.739, 1563393315739
94, 419.27, 0.00, 0.00, 0.00, 0.00, 0.00, 0.00, 0.00, 0.108, 0.022, 1.022, 15:55:15.739, 1563393315739
95, 395.47, 0.00, 0.00, 0.00, 0.00, 0.00, 0.00, 0.00, 0.000, 0.000, 0.000, 15:55:15.739, 1563393315739
96, 380.83, 0.00, 0.00, 0.00, 0.00, 0.00, 0.00, 0.00, 0.000, 0.000, 0.000, 15:55:15.739, 1563393315739
97, 405.44, 0.00, 0.00, 0.00, 0.00, 0.00, 0.00, 0.00, 0.000, 0.000, 0.000, 15:55:15.739, 1563393315739
98, 408.84, 0.00, 0.00, 0.00, 0.00, 0.00, 0.00, 0.00, 0.000, 0.000, 0.000, 15:55:15.740, 1563393315740
99, 411.99, 0.00, 0.00, 0.00, 0.00, 0.00, 0.00, 0.00, 0.000, 0.000, 0.000, 15:55:15.740, 1563393315740
100, 396.10, 0.00, 0.00, 0.00, 0.00, 0.00, 0.00, 0.00, 0.000, 0.000, 0.000, 15:55:15.740, 1563393315740
101, 402.22, 0.00, 0.00, 0.00, 0.00, 0.00, 0.00, 0.00, 0.000, 0.000, 0.000, 15:55:15.740, 1563393315740
102, 424.06, 0.00, 0.00, 0.00, 0.00, 0.00, 0.00, 0.00, 0.000, 0.000, 0.000, 15:55:15.740, 1563393315740
103, 411.34, 0.00, 0.00, 0.00, 0.00, 0.00, 0.00, 0.00, 0.000, 0.000, 0.000, 15:55:15.740, 1563393315740
104, 401.33, 0.00, 0.00, 0.00, 0.00, 0.00, 0.00, 0.00, 0.108, 0.022, 1.030, 15:55:15.740, 1563393315740
105, 430.29, 0.00, 0.00, 0.00, 0.00, 0.00, 0.00, 0.00, 0.000, 0.000, 0.000, 15:55:15.740, 1563393315740
106, 424.95, 0.00, 0.00, 0.00, 0.00, 0.00, 0.00, 0.00, 0.000, 0.000, 0.000, 15:55:15.740, 1563393315740
107, 398.64, 0.00, 0.00, 0.00, 0.00, 0.00, 0.00, 0.00, 0.000, 0.000, 0.000, 15:55:15.740, 1563393315740
108, 405.21, 0.00, 0.00, 0.00, 0.00, 0.00, 0.00, 0.00, 0.000, 0.000, 0.000, 15:55:15.740, 1563393315740
109, 421.51, 0.00, 0.00, 0.00, 0.00, 0.00, 0.00, 0.00, 0.000, 0.000, 0.000, 15:55:15.740, 1563393315740
110, 424.46, 0.00, 0.00, 0.00, 0.00, 0.00, 0.00, 0.00, 0.000, 0.000, 0.000, 15:55:15.740, 1563393315740
111, 396.61, 0.00, 0.00, 0.00, 0.00, 0.00, 0.00, 0.00, 0.000, 0.000, 0.000, 15:55:15.740, 1563393315740
112, 393.35, 0.00, 0.00, 0.00, 0.00, 0.00, 0.00, 0.00, 0.000, 0.000, 0.000, 15:55:15.740, 1563393315740
113, 425.11, 0.00, 0.00, 0.00, 0.00, 0.00, 0.00, 0.00, 0.000, 0.000, 0.000, 15:55:15.740, 1563393315740
114, 427.79, 0.00, 0.00, 0.00, 0.00, 0.00, 0.00, 0.00, 0.108, 0.020, 1.028, 15:55:15.740, 1563393315740
115, 415.92, 0.00, 0.00, 0.00, 0.00, 0.00, 0.00, 0.00, 0.000, 0.000, 0.000, 15:55:15.740, 1563393315740
116, 402.85, 0.00, 0.00, 0.00, 0.00, 0.00, 0.00, 0.00, 0.000, 0.000, 0.000, 15:55:15.740, 1563393315740
117, 395.63, 0.00, 0.00, 0.00, 0.00, 0.00, 0.00, 0.00, 0.000, 0.000, 0.000, 15:55:15.740, 1563393315740
118, 405.89, 0.00, 0.00, 0.00, 0.00, 0.00, 0.00, 0.00, 0.000, 0.000, 0.000, 15:55:15.740, 1563393315740
119, 402.96, 0.00, 0.00, 0.00, 0.00, 0.00, 0.00, 0.00, 0.000, 0.000, 0.000, 15:55:15.740, 1563393315740
120, 403.09, 0.00, 0.00, 0.00, 0.00, 0.00, 0.00, 0.00, 0.000, 0.000, 0.000, 15:55:15.740, 1563393315740
121, 415.83, 0.00, 0.00, 0.00, 0.00, 0.00, 0.00, 0.00, 0.000, 0.000, 0.000, 15:55:15.740, 1563393315740
122, 416.37, 0.00, 0.00, 0.00, 0.00, 0.00, 0.00, 0.00, 0.000, 0.000, 0.000, 15:55:15.740, 1563393315740
123, 403.72, 0.00, 0.00, 0.00, 0.00, 0.00, 0.00, 0.00, 0.000, 0.000, 0.000, 15:55:15.740, 1563393315740
124, 396.10, 0.00, 0.00, 0.00, 0.00, 0.00, 0.00, 0.00, 0.106, 0.020, 1.020, 15:55:15.740, 1563393315740
125, 387.62, 0.00, 0.00, 0.00, 0.00, 0.00, 0.00, 0.00, 0.000, 0.000, 0.000, 15:55:15.740, 1563393315740
