%OpenBCI Raw EEG Data
%Number of channels = 8
%Sample Rate = 250.0 Hz
%First Column = SampleIndex
%Last Column = Timestamp 
%Other Columns = EEG data in microvolts followed by Accel Data (in G) interleaved with Aux Data
0, 0.00, 0.00, 0.00, 0.00, 0.00, 0.00, 0.00, 0.00, 0.122, -0.050, 1.018, 17:07:28.253, 1563397648253
1, 11833.28, 0.00, 0.00, 0.00, 0.00, 0.00, 0.00, 0.00, 0.000, 0.000, 0.000, 17:07:28.734, 1563397648734
2, 11837.04, 0.00, 0.00, 0.00, 0.00, 0.00, 0.00, 0.00, 0.000, 0.000, 0.000, 17:07:28.735, 1563397648735
3, 11832.75, 0.00, 0.00, 0.00, 0.00, 0.00, 0.00, 0.00, 0.000, 0.000, 0.000, 17:07:28.735, 1563397648735
4, 11821.23, 0.00, 0.00, 0.00, 0.00, 0.00, 0.00, 0.00, 0.000, 0.000, 0.000, 17:07:28.735, 1563397648735
5, 11821.01, 0.00, 0.00, 0.00, 0.00, 0.00, 0.00, 0.00, 0.000, 0.000, 0.000, 17:07:28.735, 1563397648735
6, 11831.81, 0.00, 0.00, 0.00, 0.00, 0.00, 0.00, 0.00, 0.000, 0.000, 0.000, 17:07:28.735, 1563397648735
7, 11832.54, 0.00, 0.00, 0.00, 0.00, 0.00, 0.00, 0.00, 0.000, 0.000, 0.000, 17:07:28.735, 1563397648735
8, 11828.68, 0.00, 0.00, 0.00, 0.00, 0.00, 0.00, 0.00, 0.124, -0.054, 1.018, 17:07:28.735, 1563397648735
9, 11829.68, 0.00, 0.00, 0.00, 0.00, 0.00, 0.00, 0.00, 0.000, 0.000, 0.000, 17:07:28.735, 1563397648735
10, 11831.27, 0.00, 0.00, 0.00, 0.00, 0.00, 0.00, 0.00, 0.000, 0.000, 0.000, 17:07:28.735, 1563397648735
11, 11828.52, 0.00, 0.00, 0.00, 0.00, 0.00, 0.00, 0.00, 0.000, 0.000, 0.000, 17:07:28.735, 1563397648735
12, 11816.70, 0.00, 0.00, 0.00, 0.00, 0.00, 0.00, 0.00, 0.000, 0.000, 0.000, 17:07:28.735, 1563397648735
13, 11819.83, 0.00, 0.00, 0.00, 0.00, 0.00, 0.00, 0.00, 0.000, 0.000, 0.000, 17:07:28.735, 1563397648735
14, 11825.44, 0.00, 0.00, 0.00, 0.00, 0.00, 0.00, 0.00, 0.000, 0.000, 0.000, 17:07:28.735, 1563397648735
15, 11824.88, 0.00, 0.00, 0.00, 0.00, 0.00, 0.00, 0.00, 0.000, 0.000, 0.000, 17:07:28.735, 1563397648735
16, 11834.67, 0.00, 0.00, 0.00, 0.00, 0.00, 0.00, 0.00, 0.000, 0.000, 0.000, 17:07:28.735, 1563397648735
17, 11826.24, 0.00, 0.00, 0.00, 0.00, 0.00, 0.00, 0.00, 0.000, 0.000, 0.000, 17:07:28.735, 1563397648735
18, 11820.00, 0.00, 0.00, 0.00, 0.00, 0.00, 0.00, 0.00, 0.120, -0.060, 1.018, 17:07:28.735, 1563397648735
19, 11823.20, 0.00, 0.00, 0.00, 0.00, 0.00, 0.00, 0.00, 0.000, 0.000, 0.000, 17:07:28.735, 1563397648735
20, 11838.36, 0.00, 0.00, 0.00, 0.00, 0.00, 0.00, 0.00, 0.000, 0.000, 0.000, 17:07:28.735, 1563397648735
21, 11839.67, 0.00, 0.00, 0.00, 0.00, 0.00, 0.00, 0.00, 0.000, 0.000, 0.000, 17:07:28.735, 1563397648735
22, 11832.30, 0.00, 0.00, 0.00, 0.00, 0.00, 0.00, 0.00, 0.000, 0.000, 0.000, 17:07:28.735, 1563397648735
23, 11827.87, 0.00, 0.00, 0.00, 0.00, 0.00, 0.00, 0.00, 0.000, 0.000, 0.000, 17:07:28.735, 1563397648735
24, 11831.16, 0.00, 0.00, 0.00, 0.00, 0.00, 0.00, 0.00, 0.000, 0.000, 0.000, 17:07:28.735, 1563397648735
25, 11830.40, 0.00, 0.00, 0.00, 0.00, 0.00, 0.00, 0.00, 0.000, 0.000, 0.000, 17:07:28.735, 1563397648735
26, 11822.53, 0.00, 0.00, 0.00, 0.00, 0.00, 0.00, 0.00, 0.000, 0.000, 0.000, 17:07:28.735, 1563397648735
27, 11815.09, 0.00, 0.00, 0.00, 0.00, 0.00, 0.00, 0.00, 0.000, 0.000, 0.000, 17:07:28.735, 1563397648735
28, 11812.38, 0.00, 0.00, 0.00, 0.00, 0.00, 0.00, 0.00, 0.122, -0.060, 1.020, 17:07:28.735, 1563397648735
29, 11818.84, 0.00, 0.00, 0.00, 0.00, 0.00, 0.00, 0.00, 0.000, 0.000, 0.000, 17:07:28.735, 1563397648735
30, 11829.62, 0.00, 0.00, 0.00, 0.00, 0.00, 0.00, 0.00, 0.000, 0.000, 0.000, 17:07:28.735, 1563397648735
31, 11838.31, 0.00, 0.00, 0.00, 0.00, 0.00, 0.00, 0.00, 0.000, 0.000, 0.000, 17:07:28.735, 1563397648735
32, 11837.30, 0.00, 0.00, 0.00, 0.00, 0.00, 0.00, 0.00, 0.000, 0.000, 0.000, 17:07:28.735, 1563397648735
33, 11834.31, 0.00, 0.00, 0.00, 0.00, 0.00, 0.00, 0.00, 0.000, 0.000, 0.000, 17:07:28.735, 1563397648735
34, 11838.36, 0.00, 0.00, 0.00, 0.00, 0.00, 0.00, 0.00, 0.000, 0.000, 0.000, 17:07:28.735, 1563397648735
35, 11842.83, 0.00, 0.00, 0.00, 0.00, 0.00, 0.00, 0.00, 0.000, 0.000, 0.000, 17:07:28.735, 1563397648735
36, 11840.23, 0.00, 0.00, 0.00, 0.00, 0.00, 0.00, 0.00, 0.000, 0.000, 0.000, 17:07:28.735, 1563397648735
37, 11835.76, 0.00, 0.00, 0.00, 0.00, 0.00, 0.00, 0.00, 0.000, 0.000, 0.000, 17:07:28.735, 1563397648735
38, 11834.67, 0.00, 0.00, 0.00, 0.00, 0.00, 0.00, 0.00, 0.120, -0.060, 1.026, 17:07:28.735, 1563397648735
39, 11838.24, 0.00, 0.00, 0.00, 0.00, 0.00, 0.00, 0.00, 0.000, 0.000, 0.000, 17:07:28.735, 1563397648735
40, 11838.56, 0.00, 0.00, 0.00, 0.00, 0.00, 0.00, 0.00, 0.000, 0.000, 0.000, 17:07:28.735, 1563397648735
41, 11834.53, 0.00, 0.00, 0.00, 0.00, 0.00, 0.00, 0.00, 0.000, 0.000, 0.000, 17:07:28.735, 1563397648735
42, 11830.73, 0.00, 0.00, 0.00, 0.00, 0.00, 0.00, 0.00, 0.000, 0.000, 0.000, 17:07:28.735, 1563397648735
43, 11836.34, 0.00, 0.00, 0.00, 0.00, 0.00, 0.00, 0.00, 0.000, 0.000, 0.000, 17:07:28.735, 1563397648735
44, 11841.42, 0.00, 0.00, 0.00, 0.00, 0.00, 0.00, 0.00, 0.000, 0.000, 0.000, 17:07:28.735, 1563397648735
45, 11839.88, 0.00, 0.00, 0.00, 0.00, 0.00, 0.00, 0.00, 0.000, 0.000, 0.000, 17:07:28.735, 1563397648735
46, 11838.96, 0.00, 0.00, 0.00, 0.00, 0.00, 0.00, 0.00, 0.000, 0.000, 0.000, 17:07:28.735, 1563397648735
47, 11838.20, 0.00, 0.00, 0.00, 0.00, 0.00, 0.00, 0.00, 0.000, 0.000, 0.000, 17:07:28.735, 1563397648735
48, 11836.61, 0.00, 0.00, 0.00, 0.00, 0.00, 0.00, 0.00, 0.000, 0.000, 0.000, 17:07:28.735, 1563397648735
49, 11832.50, 0.00, 0.00, 0.00, 0.00, 0.00, 0.00, 0.00, 0.124, -0.066, 1.026, 17:07:28.735, 1563397648735
50, 11824.36, 0.00, 0.00, 0.00, 0.00, 0.00, 0.00, 0.00, 0.000, 0.000, 0.000, 17:07:28.735, 1563397648735
51, 11827.87, 0.00, 0.00, 0.00, 0.00, 0.00, 0.00, 0.00, 0.000, 0.000, 0.000, 17:07:28.736, 1563397648736
52, 11826.02, 0.00, 0.00, 0.00, 0.00, 0.00, 0.00, 0.00, 0.000, 0.000, 0.000, 17:07:28.736, 1563397648736
53, 11828.12, 0.00, 0.00, 0.00, 0.00, 0.00, 0.00, 0.00, 0.000, 0.000, 0.000, 17:07:28.736, 1563397648736
54, 11831.29, 0.00, 0.00, 0.00, 0.00, 0.00, 0.00, 0.00, 0.000, 0.000, 0.000, 17:07:28.736, 1563397648736
55, 11830.73, 0.00, 0.00, 0.00, 0.00, 0.00, 0.00, 0.00, 0.000, 0.000, 0.000, 17:07:28.736, 1563397648736
56, 11837.39, 0.00, 0.00, 0.00, 0.00, 0.00, 0.00, 0.00, 0.000, 0.000, 0.000, 17:07:28.736, 1563397648736
57, 11838.65, 0.00, 0.00, 0.00, 0.00, 0.00, 0.00, 0.00, 0.000, 0.000, 0.000, 17:07:28.736, 1563397648736
58, 11835.94, 0.00, 0.00, 0.00, 0.00, 0.00, 0.00, 0.00, 0.000, 0.000, 0.000, 17:07:28.736, 1563397648736
59, 11838.47, 0.00, 0.00, 0.00, 0.00, 0.00, 0.00, 0.00, 0.120, -0.072, 1.032, 17:07:28.736, 1563397648736
60, 11839.81, 0.00, 0.00, 0.00, 0.00, 0.00, 0.00, 0.00, 0.000, 0.000, 0.000, 17:07:28.736, 1563397648736
61, 11832.88, 0.00, 0.00, 0.00, 0.00, 0.00, 0.00, 0.00, 0.000, 0.000, 0.000, 17:07:28.736, 1563397648736
62, 11824.05, 0.00, 0.00, 0.00, 0.00, 0.00, 0.00, 0.00, 0.000, 0.000, 0.000, 17:07:28.736, 1563397648736
63, 11825.88, 0.00, 0.00, 0.00, 0.00, 0.00, 0.00, 0.00, 0.000, 0.000, 0.000, 17:07:28.736, 1563397648736
64, 11829.59, 0.00, 0.00, 0.00, 0.00, 0.00, 0.00, 0.00, 0.000, 0.000, 0.000, 17:07:28.736, 1563397648736
65, 11833.82, 0.00, 0.00, 0.00, 0.00, 0.00, 0.00, 0.00, 0.000, 0.000, 0.000, 17:07:28.736, 1563397648736
66, 11832.52, 0.00, 0.00, 0.00, 0.00, 0.00, 0.00, 0.00, 0.000, 0.000, 0.000, 17:07:28.736, 1563397648736
67, 11830.53, 0.00, 0.00, 0.00, 0.00, 0.00, 0.00, 0.00, 0.000, 0.000, 0.000, 17:07:28.736, 1563397648736
68, 11829.95, 0.00, 0.00, 0.00, 0.00, 0.00, 0.00, 0.00, 0.000, 0.000, 0.000, 17:07:28.736, 1563397648736
69, 11832.41, 0.00, 0.00, 0.00, 0.00, 0.00, 0.00, 0.00, 0.118, -0.068, 1.024, 17:07:28.736, 1563397648736
70, 11830.82, 0.00, 0.00, 0.00, 0.00, 0.00, 0.00, 0.00, 0.000, 0.000, 0.000, 17:07:28.736, 1563397648736
71, 11833.48, 0.00, 0.00, 0.00, 0.00, 0.00, 0.00, 0.00, 0.000, 0.000, 0.000, 17:07:28.736, 1563397648736
72, 11842.47, 0.00, 0.00, 0.00, 0.00, 0.00, 0.00, 0.00, 0.000, 0.000, 0.000, 17:07:28.736, 1563397648736
73, 11844.86, 0.00, 0.00, 0.00, 0.00, 0.00, 0.00, 0.00, 0.000, 0.000, 0.000, 17:07:28.736, 1563397648736
74, 11843.97, 0.00, 0.00, 0.00, 0.00, 0.00, 0.00, 0.00, 0.000, 0.000, 0.000, 17:07:28.736, 1563397648736
75, 11846.49, 0.00, 0.00, 0.00, 0.00, 0.00, 0.00, 0.00, 0.000, 0.000, 0.000, 17:07:28.736, 1563397648736
76, 11849.38, 0.00, 0.00, 0.00, 0.00, 0.00, 0.00, 0.00, 0.000, 0.000, 0.000, 17:07:28.736, 1563397648736
77, 11844.64, 0.00, 0.00, 0.00, 0.00, 0.00, 0.00, 0.00, 0.000, 0.000, 0.000, 17:07:28.736, 1563397648736
78, 11843.94, 0.00, 0.00, 0.00, 0.00, 0.00, 0.00, 0.00, 0.000, 0.000, 0.000, 17:07:28.736, 1563397648736
79, 11844.32, 0.00, 0.00, 0.00, 0.00, 0.00, 0.00, 0.00, 0.118, -0.072, 1.022, 17:07:28.736, 1563397648736
80, 11841.75, 0.00, 0.00, 0.00, 0.00, 0.00, 0.00, 0.00, 0.000, 0.000, 0.000, 17:07:28.736, 1563397648736
81, 11844.19, 0.00, 0.00, 0.00, 0.00, 0.00, 0.00, 0.00, 0.000, 0.000, 0.000, 17:07:28.736, 1563397648736
82, 11848.59, 0.00, 0.00, 0.00, 0.00, 0.00, 0.00, 0.00, 0.000, 0.000, 0.000, 17:07:28.736, 1563397648736
83, 11851.77, 0.00, 0.00, 0.00, 0.00, 0.00, 0.00, 0.00, 0.000, 0.000, 0.000, 17:07:28.737, 1563397648737
84, 11858.90, 0.00, 0.00, 0.00, 0.00, 0.00, 0.00, 0.00, 0.000, 0.000, 0.000, 17:07:28.737, 1563397648737
85, 11867.10, 0.00, 0.00, 0.00, 0.00, 0.00, 0.00, 0.00, 0.000, 0.000, 0.000, 17:07:28.737, 1563397648737
86, 11874.72, 0.00, 0.00, 0.00, 0.00, 0.00, 0.00, 0.00, 0.000, 0.000, 0.000, 17:07:28.737, 1563397648737
87, 11874.27, 0.00, 0.00, 0.00, 0.00, 0.00, 0.00, 0.00, 0.000, 0.000, 0.000, 17:07:28.737, 1563397648737
88, 11871.46, 0.00, 0.00, 0.00, 0.00, 0.00, 0.00, 0.00, 0.000, 0.000, 0.000, 17:07:28.737, 1563397648737
89, 11868.98, 0.00, 0.00, 0.00, 0.00, 0.00, 0.00, 0.00, 0.118, -0.072, 1.026, 17:07:28.737, 1563397648737
90, 11868.98, 0.00, 0.00, 0.00, 0.00, 0.00, 0.00, 0.00, 0.000, 0.000, 0.000, 17:07:28.737, 1563397648737
91, 11868.51, 0.00, 0.00, 0.00, 0.00, 0.00, 0.00, 0.00, 0.000, 0.000, 0.000, 17:07:28.737, 1563397648737
92, 11865.18, 0.00, 0.00, 0.00, 0.00, 0.00, 0.00, 0.00, 0.000, 0.000, 0.000, 17:07:28.737, 1563397648737
93, 11863.61, 0.00, 0.00, 0.00, 0.00, 0.00, 0.00, 0.00, 0.000, 0.000, 0.000, 17:07:28.737, 1563397648737
94, 11863.39, 0.00, 0.00, 0.00, 0.00, 0.00, 0.00, 0.00, 0.000, 0.000, 0.000, 17:07:28.737, 1563397648737
95, 11866.61, 0.00, 0.00, 0.00, 0.00, 0.00, 0.00, 0.00, 0.000, 0.000, 0.000, 17:07:28.737, 1563397648737
96, 11857.22, 0.00, 0.00, 0.00, 0.00, 0.00, 0.00, 0.00, 0.000, 0.000, 0.000, 17:07:28.737, 1563397648737
97, 11850.92, 0.00, 0.00, 0.00, 0.00, 0.00, 0.00, 0.00, 0.000, 0.000, 0.000, 17:07:28.737, 1563397648737
98, 11858.02, 0.00, 0.00, 0.00, 0.00, 0.00, 0.00, 0.00, 0.000, 0.000, 0.000, 17:07:28.737, 1563397648737
99, 11852.93, 0.00, 0.00, 0.00, 0.00, 0.00, 0.00, 0.00, 0.000, 0.000, 0.000, 17:07:28.737, 1563397648737
100, 11851.54, 0.00, 0.00, 0.00, 0.00, 0.00, 0.00, 0.00, 0.118, -0.074, 1.026, 17:07:28.737, 1563397648737
101, 11853.87, 0.00, 0.00, 0.00, 0.00, 0.00, 0.00, 0.00, 0.000, 0.000, 0.000, 17:07:28.737, 1563397648737
102, 11855.14, 0.00, 0.00, 0.00, 0.00, 0.00, 0.00, 0.00, 0.000, 0.000, 0.000, 17:07:28.737, 1563397648737
103, 11852.93, 0.00, 0.00, 0.00, 0.00, 0.00, 0.00, 0.00, 0.000, 0.000, 0.000, 17:07:28.737, 1563397648737
104, 11852.17, 0.00, 0.00, 0.00, 0.00, 0.00, 0.00, 0.00, 0.000, 0.000, 0.000, 17:07:28.737, 1563397648737
105, 11850.22, 0.00, 0.00, 0.00, 0.00, 0.00, 0.00, 0.00, 0.000, 0.000, 0.000, 17:07:28.737, 1563397648737
106, 11847.09, 0.00, 0.00, 0.00, 0.00, 0.00, 0.00, 0.00, 0.000, 0.000, 0.000, 17:07:28.737, 1563397648737
107, 11846.78, 0.00, 0.00, 0.00, 0.00, 0.00, 0.00, 0.00, 0.000, 0.000, 0.000, 17:07:28.737, 1563397648737
108, 11850.96, 0.00, 0.00, 0.00, 0.00, 0.00, 0.00, 0.00, 0.000, 0.000, 0.000, 17:07:28.737, 1563397648737
109, 11858.49, 0.00, 0.00, 0.00, 0.00, 0.00, 0.00, 0.00, 0.000, 0.000, 0.000, 17:07:28.737, 1563397648737
110, 11861.36, 0.00, 0.00, 0.00, 0.00, 0.00, 0.00, 0.00, 0.116, -0.076, 1.020, 17:07:28.737, 1563397648737
111, 11859.34, 0.00, 0.00, 0.00, 0.00, 0.00, 0.00, 0.00, 0.000, 0.000, 0.000, 17:07:28.737, 1563397648737
112, 11861.71, 0.00, 0.00, 0.00, 0.00, 0.00, 0.00, 0.00, 0.000, 0.000, 0.000, 17:07:28.737, 1563397648737
113, 11863.50, 0.00, 0.00, 0.00, 0.00, 0.00, 0.00, 0.00, 0.000, 0.000, 0.000, 17:07:28.737, 1563397648737
114, 11865.11, 0.00, 0.00, 0.00, 0.00, 0.00, 0.00, 0.00, 0.000, 0.000, 0.000, 17:07:28.737, 1563397648737
115, 11866.41, 0.00, 0.00, 0.00, 0.00, 0.00, 0.00, 0.00, 0.000, 0.000, 0.000, 17:07:28.737, 1563397648737
116, 11862.76, 0.00, 0.00, 0.00, 0.00, 0.00, 0.00, 0.00, 0.000, 0.000, 0.000, 17:07:28.737, 1563397648737
117, 11856.39, 0.00, 0.00, 0.00, 0.00, 0.00, 0.00, 0.00, 0.000, 0.000, 0.000, 17:07:28.737, 1563397648737
118, 11852.88, 0.00, 0.00, 0.00, 0.00, 0.00, 0.00, 0.00, 0.000, 0.000, 0.000, 17:07:28.737, 1563397648737
119, 11862.38, 0.00, 0.00, 0.00, 0.00, 0.00, 0.00, 0.00, 0.000, 0.000, 0.000, 17:07:28.738, 1563397648738
120, 11868.80, 0.00, 0.00, 0.00, 0.00, 0.00, 0.00, 0.00, 0.118, -0.076, 1.024, 17:07:28.738, 1563397648738
121, 11873.89, 0.00, 0.00, 0.00, 0.00, 0.00, 0.00, 0.00, 0.000, 0.000, 0.000, 17:07:29.215, 1563397649215
122, 11868.96, 0.00, 0.00, 0.00, 0.00, 0.00, 0.00, 0.00, 0.000, 0.000, 0.000, 17:07:29.215, 1563397649215
123, 11866.70, 0.00, 0.00, 0.00, 0.00, 0.00, 0.00, 0.00, 0.000, 0.000, 0.000, 17:07:29.215, 1563397649215
124, 11859.95, 0.00, 0.00, 0.00, 0.00, 0.00, 0.00, 0.00, 0.000, 0.000, 0.000, 17:07:29.216, 1563397649216
125, 11851.30, 0.00, 0.00, 0.00, 0.00, 0.00, 0.00, 0.00, 0.000, 0.000, 0.000, 17:07:29.216, 1563397649216
126, 11847.56, 0.00, 0.00, 0.00, 0.00, 0.00, 0.00, 0.00, 0.000, 0.000, 0.000, 17:07:29.216, 1563397649216
127, 11857.98, 0.00, 0.00, 0.00, 0.00, 0.00, 0.00, 0.00, 0.000, 0.000, 0.000, 17:07:29.216, 1563397649216
128, 11867.75, 0.00, 0.00, 0.00, 0.00, 0.00, 0.00, 0.00, 0.000, 0.000, 0.000, 17:07:29.216, 1563397649216
129, 11864.26, 0.00, 0.00, 0.00, 0.00, 0.00, 0.00, 0.00, 0.000, 0.000, 0.000, 17:07:29.216, 1563397649216
130, 11863.63, 0.00, 0.00, 0.00, 0.00, 0.00, 0.00, 0.00, 0.124, -0.072, 1.024, 17:07:29.216, 1563397649216
131, 11864.01, 0.00, 0.00, 0.00, 0.00, 0.00, 0.00, 0.00, 0.000, 0.000, 0.000, 17:07:29.216, 1563397649216
132, 11859.01, 0.00, 0.00, 0.00, 0.00, 0.00, 0.00, 0.00, 0.000, 0.000, 0.000, 17:07:29.216, 1563397649216
133, 11856.57, 0.00, 0.00, 0.00, 0.00, 0.00, 0.00, 0.00, 0.000, 0.000, 0.000, 17:07:29.216, 1563397649216
134, 11865.94, 0.00, 0.00, 0.00, 0.00, 0.00, 0.00, 0.00, 0.000, 0.000, 0.000, 17:07:29.216, 1563397649216
135, 11875.50, 0.00, 0.00, 0.00, 0.00, 0.00, 0.00, 0.00, 0.000, 0.000, 0.000, 17:07:29.216, 1563397649216
136, 11873.85, 0.00, 0.00, 0.00, 0.00, 0.00, 0.00, 0.00, 0.000, 0.000, 0.000, 17:07:29.216, 1563397649216
137, 11867.84, 0.00, 0.00, 0.00, 0.00, 0.00, 0.00, 0.00, 0.000, 0.000, 0.000, 17:07:29.216, 1563397649216
138, 11863.17, 0.00, 0.00, 0.00, 0.00, 0.00, 0.00, 0.00, 0.000, 0.000, 0.000, 17:07:29.216, 1563397649216
139, 11868.87, 0.00, 0.00, 0.00, 0.00, 0.00, 0.00, 0.00, 0.000, 0.000, 0.000, 17:07:29.216, 1563397649216
140, 11873.49, 0.00, 0.00, 0.00, 0.00, 0.00, 0.00, 0.00, 0.124, -0.072, 1.024, 17:07:29.216, 1563397649216
141, 11869.45, 0.00, 0.00, 0.00, 0.00, 0.00, 0.00, 0.00, 0.000, 0.000, 0.000, 17:07:29.216, 1563397649216
142, 11864.60, 0.00, 0.00, 0.00, 0.00, 0.00, 0.00, 0.00, 0.000, 0.000, 0.000, 17:07:29.216, 1563397649216
143, 11865.96, 0.00, 0.00, 0.00, 0.00, 0.00, 0.00, 0.00, 0.000, 0.000, 0.000, 17:07:29.216, 1563397649216
144, 11866.32, 0.00, 0.00, 0.00, 0.00, 0.00, 0.00, 0.00, 0.000, 0.000, 0.000, 17:07:29.216, 1563397649216
145, 11867.86, 0.00, 0.00, 0.00, 0.00, 0.00, 0.00, 0.00, 0.000, 0.000, 0.000, 17:07:29.216, 1563397649216
146, 11867.46, 0.00, 0.00, 0.00, 0.00, 0.00, 0.00, 0.00, 0.000, 0.000, 0.000, 17:07:29.216, 1563397649216
147, 11866.34, 0.00, 0.00, 0.00, 0.00, 0.00, 0.00, 0.00, 0.000, 0.000, 0.000, 17:07:29.216, 1563397649216
148, 11875.21, 0.00, 0.00, 0.00, 0.00, 0.00, 0.00, 0.00, 0.000, 0.000, 0.000, 17:07:29.216, 1563397649216
149, 11871.48, 0.00, 0.00, 0.00, 0.00, 0.00, 0.00, 0.00, 0.000, 0.000, 0.000, 17:07:29.216, 1563397649216
150, 11863.63, 0.00, 0.00, 0.00, 0.00, 0.00, 0.00, 0.00, 0.118, -0.070, 1.028, 17:07:29.216, 1563397649216
151, 11862.70, 0.00, 0.00, 0.00, 0.00, 0.00, 0.00, 0.00, 0.000, 0.000, 0.000, 17:07:29.216, 1563397649216
152, 11861.87, 0.00, 0.00, 0.00, 0.00, 0.00, 0.00, 0.00, 0.000, 0.000, 0.000, 17:07:29.216, 1563397649216
153, 11858.81, 0.00, 0.00, 0.00, 0.00, 0.00, 0.00, 0.00, 0.000, 0.000, 0.000, 17:07:29.216, 1563397649216
154, 11860.80, 0.00, 0.00, 0.00, 0.00, 0.00, 0.00, 0.00, 0.000, 0.000, 0.000, 17:07:29.216, 1563397649216
155, 11862.43, 0.00, 0.00, 0.00, 0.00, 0.00, 0.00, 0.00, 0.000, 0.000, 0.000, 17:07:29.216, 1563397649216
156, 11862.38, 0.00, 0.00, 0.00, 0.00, 0.00, 0.00, 0.00, 0.000, 0.000, 0.000, 17:07:29.216, 1563397649216
157, 11864.66, 0.00, 0.00, 0.00, 0.00, 0.00, 0.00, 0.00, 0.000, 0.000, 0.000, 17:07:29.217, 1563397649217
158, 11867.57, 0.00, 0.00, 0.00, 0.00, 0.00, 0.00, 0.00, 0.000, 0.000, 0.000, 17:07:29.217, 1563397649217
159, 11870.61, 0.00, 0.00, 0.00, 0.00, 0.00, 0.00, 0.00, 0.000, 0.000, 0.000, 17:07:29.217, 1563397649217
160, 11870.85, 0.00, 0.00, 0.00, 0.00, 0.00, 0.00, 0.00, 0.000, 0.000, 0.000, 17:07:29.217, 1563397649217
161, 11873.51, 0.00, 0.00, 0.00, 0.00, 0.00, 0.00, 0.00, 0.120, -0.072, 1.032, 17:07:29.217, 1563397649217
162, 11872.67, 0.00, 0.00, 0.00, 0.00, 0.00, 0.00, 0.00, 0.000, 0.000, 0.000, 17:07:29.217, 1563397649217
163, 11871.19, 0.00, 0.00, 0.00, 0.00, 0.00, 0.00, 0.00, 0.000, 0.000, 0.000, 17:07:29.217, 1563397649217
164, 11870.59, 0.00, 0.00, 0.00, 0.00, 0.00, 0.00, 0.00, 0.000, 0.000, 0.000, 17:07:29.217, 1563397649217
165, 11867.55, 0.00, 0.00, 0.00, 0.00, 0.00, 0.00, 0.00, 0.000, 0.000, 0.000, 17:07:29.217, 1563397649217
166, 11860.08, 0.00, 0.00, 0.00, 0.00, 0.00, 0.00, 0.00, 0.000, 0.000, 0.000, 17:07:29.217, 1563397649217
167, 11862.50, 0.00, 0.00, 0.00, 0.00, 0.00, 0.00, 0.00, 0.000, 0.000, 0.000, 17:07:29.217, 1563397649217
168, 11868.84, 0.00, 0.00, 0.00, 0.00, 0.00, 0.00, 0.00, 0.000, 0.000, 0.000, 17:07:29.217, 1563397649217
169, 11876.55, 0.00, 0.00, 0.00, 0.00, 0.00, 0.00, 0.00, 0.000, 0.000, 0.000, 17:07:29.217, 1563397649217
170, 11873.04, 0.00, 0.00, 0.00, 0.00, 0.00, 0.00, 0.00, 0.000, 0.000, 0.000, 17:07:29.217, 1563397649217
171, 11864.10, 0.00, 0.00, 0.00, 0.00, 0.00, 0.00, 0.00, 0.126, -0.072, 1.026, 17:07:29.217, 1563397649217
172, 11859.92, 0.00, 0.00, 0.00, 0.00, 0.00, 0.00, 0.00, 0.000, 0.000, 0.000, 17:07:29.217, 1563397649217
173, 11861.24, 0.00, 0.00, 0.00, 0.00, 0.00, 0.00, 0.00, 0.000, 0.000, 0.000, 17:07:29.217, 1563397649217
174, 11865.38, 0.00, 0.00, 0.00, 0.00, 0.00, 0.00, 0.00, 0.000, 0.000, 0.000, 17:07:29.217, 1563397649217
175, 11872.58, 0.00, 0.00, 0.00, 0.00, 0.00, 0.00, 0.00, 0.000, 0.000, 0.000, 17:07:29.217, 1563397649217
176, 11871.10, 0.00, 0.00, 0.00, 0.00, 0.00, 0.00, 0.00, 0.000, 0.000, 0.000, 17:07:29.217, 1563397649217
177, 11870.65, 0.00, 0.00, 0.00, 0.00, 0.00, 0.00, 0.00, 0.000, 0.000, 0.000, 17:07:29.217, 1563397649217
178, 11868.49, 0.00, 0.00, 0.00, 0.00, 0.00, 0.00, 0.00, 0.000, 0.000, 0.000, 17:07:29.217, 1563397649217
179, 11866.97, 0.00, 0.00, 0.00, 0.00, 0.00, 0.00, 0.00, 0.000, 0.000, 0.000, 17:07:29.217, 1563397649217
180, 11864.62, 0.00, 0.00, 0.00, 0.00, 0.00, 0.00, 0.00, 0.000, 0.000, 0.000, 17:07:29.217, 1563397649217
181, 11864.35, 0.00, 0.00, 0.00, 0.00, 0.00, 0.00, 0.00, 0.124, -0.072, 1.028, 17:07:29.218, 1563397649218
182, 11868.58, 0.00, 0.00, 0.00, 0.00, 0.00, 0.00, 0.00, 0.000, 0.000, 0.000, 17:07:29.218, 1563397649218
183, 11865.89, 0.00, 0.00, 0.00, 0.00, 0.00, 0.00, 0.00, 0.000, 0.000, 0.000, 17:07:29.218, 1563397649218
184, 11860.98, 0.00, 0.00, 0.00, 0.00, 0.00, 0.00, 0.00, 0.000, 0.000, 0.000, 17:07:29.218, 1563397649218
185, 11851.07, 0.00, 0.00, 0.00, 0.00, 0.00, 0.00, 0.00, 0.000, 0.000, 0.000, 17:07:29.218, 1563397649218
186, 11861.15, 0.00, 0.00, 0.00, 0.00, 0.00, 0.00, 0.00, 0.000, 0.000, 0.000, 17:07:29.218, 1563397649218
187, 11868.64, 0.00, 0.00, 0.00, 0.00, 0.00, 0.00, 0.00, 0.000, 0.000, 0.000, 17:07:29.218, 1563397649218
188, 11866.27, 0.00, 0.00, 0.00, 0.00, 0.00, 0.00, 0.00, 0.000, 0.000, 0.000, 17:07:29.218, 1563397649218
189, 11856.17, 0.00, 0.00, 0.00, 0.00, 0.00, 0.00, 0.00, 0.000, 0.000, 0.000, 17:07:29.218, 1563397649218
190, 11856.35, 0.00, 0.00, 0.00, 0.00, 0.00, 0.00, 0.00, 0.000, 0.000, 0.000, 17:07:29.218, 1563397649218
191, 11854.05, 0.00, 0.00, 0.00, 0.00, 0.00, 0.00, 0.00, 0.118, -0.074, 1.030, 17:07:29.218, 1563397649218
192, 11850.87, 0.00, 0.00, 0.00, 0.00, 0.00, 0.00, 0.00, 0.000, 0.000, 0.000, 17:07:29.218, 1563397649218
193, 11861.02, 0.00, 0.00, 0.00, 0.00, 0.00, 0.00, 0.00, 0.000, 0.000, 0.000, 17:07:29.218, 1563397649218
194, 11859.72, 0.00, 0.00, 0.00, 0.00, 0.00, 0.00, 0.00, 0.000, 0.000, 0.000, 17:07:29.218, 1563397649218
195, 11852.53, 0.00, 0.00, 0.00, 0.00, 0.00, 0.00, 0.00, 0.000, 0.000, 0.000, 17:07:29.218, 1563397649218
196, 11845.75, 0.00, 0.00, 0.00, 0.00, 0.00, 0.00, 0.00, 0.000, 0.000, 0.000, 17:07:29.218, 1563397649218
197, 11853.06, 0.00, 0.00, 0.00, 0.00, 0.00, 0.00, 0.00, 0.000, 0.000, 0.000, 17:07:29.218, 1563397649218
198, 11869.09, 0.00, 0.00, 0.00, 0.00, 0.00, 0.00, 0.00, 0.000, 0.000, 0.000, 17:07:29.218, 1563397649218
199, 11872.51, 0.00, 0.00, 0.00, 0.00, 0.00, 0.00, 0.00, 0.000, 0.000, 0.000, 17:07:29.218, 1563397649218
200, 11860.53, 0.00, 0.00, 0.00, 0.00, 0.00, 0.00, 0.00, 0.000, 0.000, 0.000, 17:07:29.218, 1563397649218
201, 11854.98, 0.00, 0.00, 0.00, 0.00, 0.00, 0.00, 0.00, 0.118, -0.070, 1.026, 17:07:29.218, 1563397649218
202, 11865.42, 0.00, 0.00, 0.00, 0.00, 0.00, 0.00, 0.00, 0.000, 0.000, 0.000, 17:07:29.218, 1563397649218
203, 11871.77, 0.00, 0.00, 0.00, 0.00, 0.00, 0.00, 0.00, 0.000, 0.000, 0.000, 17:07:29.218, 1563397649218
204, 11866.94, 0.00, 0.00, 0.00, 0.00, 0.00, 0.00, 0.00, 0.000, 0.000, 0.000, 17:07:29.218, 1563397649218
205, 11859.10, 0.00, 0.00, 0.00, 0.00, 0.00, 0.00, 0.00, 0.000, 0.000, 0.000, 17:07:29.218, 1563397649218
206, 11859.57, 0.00, 0.00, 0.00, 0.00, 0.00, 0.00, 0.00, 0.000, 0.000, 0.000, 17:07:29.218, 1563397649218
207, 11861.58, 0.00, 0.00, 0.00, 0.00, 0.00, 0.00, 0.00, 0.000, 0.000, 0.000, 17:07:29.218, 1563397649218
208, 11856.84, 0.00, 0.00, 0.00, 0.00, 0.00, 0.00, 0.00, 0.000, 0.000, 0.000, 17:07:29.218, 1563397649218
209, 11849.04, 0.00, 0.00, 0.00, 0.00, 0.00, 0.00, 0.00, 0.000, 0.000, 0.000, 17:07:29.218, 1563397649218
210, 11856.13, 0.00, 0.00, 0.00, 0.00, 0.00, 0.00, 0.00, 0.000, 0.000, 0.000, 17:07:29.218, 1563397649218
211, 11858.99, 0.00, 0.00, 0.00, 0.00, 0.00, 0.00, 0.00, 0.000, 0.000, 0.000, 17:07:29.218, 1563397649218
212, 11856.44, 0.00, 0.00, 0.00, 0.00, 0.00, 0.00, 0.00, 0.122, -0.070, 1.032, 17:07:29.218, 1563397649218
213, 11857.87, 0.00, 0.00, 0.00, 0.00, 0.00, 0.00, 0.00, 0.000, 0.000, 0.000, 17:07:29.218, 1563397649218
214, 11853.55, 0.00, 0.00, 0.00, 0.00, 0.00, 0.00, 0.00, 0.000, 0.000, 0.000, 17:07:29.218, 1563397649218
215, 11855.70, 0.00, 0.00, 0.00, 0.00, 0.00, 0.00, 0.00, 0.000, 0.000, 0.000, 17:07:29.218, 1563397649218
216, 11859.70, 0.00, 0.00, 0.00, 0.00, 0.00, 0.00, 0.00, 0.000, 0.000, 0.000, 17:07:29.219, 1563397649219
217, 11848.91, 0.00, 0.00, 0.00, 0.00, 0.00, 0.00, 0.00, 0.000, 0.000, 0.000, 17:07:29.219, 1563397649219
218, 11848.50, 0.00, 0.00, 0.00, 0.00, 0.00, 0.00, 0.00, 0.000, 0.000, 0.000, 17:07:29.219, 1563397649219
219, 11857.11, 0.00, 0.00, 0.00, 0.00, 0.00, 0.00, 0.00, 0.000, 0.000, 0.000, 17:07:29.219, 1563397649219
220, 11860.91, 0.00, 0.00, 0.00, 0.00, 0.00, 0.00, 0.00, 0.000, 0.000, 0.000, 17:07:29.219, 1563397649219
221, 11859.54, 0.00, 0.00, 0.00, 0.00, 0.00, 0.00, 0.00, 0.000, 0.000, 0.000, 17:07:29.219, 1563397649219
222, 11863.30, 0.00, 0.00, 0.00, 0.00, 0.00, 0.00, 0.00, 0.126, -0.066, 1.022, 17:07:29.219, 1563397649219
223, 11865.24, 0.00, 0.00, 0.00, 0.00, 0.00, 0.00, 0.00, 0.000, 0.000, 0.000, 17:07:29.219, 1563397649219
224, 11864.06, 0.00, 0.00, 0.00, 0.00, 0.00, 0.00, 0.00, 0.000, 0.000, 0.000, 17:07:29.219, 1563397649219
225, 11867.17, 0.00, 0.00, 0.00, 0.00, 0.00, 0.00, 0.00, 0.000, 0.000, 0.000, 17:07:29.219, 1563397649219
226, 11870.59, 0.00, 0.00, 0.00, 0.00, 0.00, 0.00, 0.00, 0.000, 0.000, 0.000, 17:07:29.219, 1563397649219
227, 11873.67, 0.00, 0.00, 0.00, 0.00, 0.00, 0.00, 0.00, 0.000, 0.000, 0.000, 17:07:29.219, 1563397649219
228, 11872.37, 0.00, 0.00, 0.00, 0.00, 0.00, 0.00, 0.00, 0.000, 0.000, 0.000, 17:07:29.219, 1563397649219
229, 11864.33, 0.00, 0.00, 0.00, 0.00, 0.00, 0.00, 0.00, 0.000, 0.000, 0.000, 17:07:29.219, 1563397649219
230, 11867.17, 0.00, 0.00, 0.00, 0.00, 0.00, 0.00, 0.00, 0.000, 0.000, 0.000, 17:07:29.219, 1563397649219
231, 11871.82, 0.00, 0.00, 0.00, 0.00, 0.00, 0.00, 0.00, 0.000, 0.000, 0.000, 17:07:29.219, 1563397649219
232, 11871.48, 0.00, 0.00, 0.00, 0.00, 0.00, 0.00, 0.00, 0.120, -0.066, 1.020, 17:07:29.219, 1563397649219
233, 11872.04, 0.00, 0.00, 0.00, 0.00, 0.00, 0.00, 0.00, 0.000, 0.000, 0.000, 17:07:29.219, 1563397649219
234, 11879.17, 0.00, 0.00, 0.00, 0.00, 0.00, 0.00, 0.00, 0.000, 0.000, 0.000, 17:07:29.219, 1563397649219
235, 11883.30, 0.00, 0.00, 0.00, 0.00, 0.00, 0.00, 0.00, 0.000, 0.000, 0.000, 17:07:29.219, 1563397649219
236, 11886.97, 0.00, 0.00, 0.00, 0.00, 0.00, 0.00, 0.00, 0.000, 0.000, 0.000, 17:07:29.219, 1563397649219
237, 11882.97, 0.00, 0.00, 0.00, 0.00, 0.00, 0.00, 0.00, 0.000, 0.000, 0.000, 17:07:29.219, 1563397649219
238, 11876.89, 0.00, 0.00, 0.00, 0.00, 0.00, 0.00, 0.00, 0.000, 0.000, 0.000, 17:07:29.219, 1563397649219
239, 11878.03, 0.00, 0.00, 0.00, 0.00, 0.00, 0.00, 0.00, 0.000, 0.000, 0.000, 17:07:29.219, 1563397649219
240, 11873.16, 0.00, 0.00, 0.00, 0.00, 0.00, 0.00, 0.00, 0.000, 0.000, 0.000, 17:07:29.219, 1563397649219
241, 11868.73, 0.00, 0.00, 0.00, 0.00, 0.00, 0.00, 0.00, 0.000, 0.000, 0.000, 17:07:29.696, 1563397649696
242, 11870.65, 0.00, 0.00, 0.00, 0.00, 0.00, 0.00, 0.00, 0.118, -0.066, 1.024, 17:07:29.696, 1563397649696
243, 11870.00, 0.00, 0.00, 0.00, 0.00, 0.00, 0.00, 0.00, 0.000, 0.000, 0.000, 17:07:29.696, 1563397649696
244, 11871.82, 0.00, 0.00, 0.00, 0.00, 0.00, 0.00, 0.00, 0.000, 0.000, 0.000, 17:07:29.696, 1563397649696
245, 11879.68, 0.00, 0.00, 0.00, 0.00, 0.00, 0.00, 0.00, 0.000, 0.000, 0.000, 17:07:29.696, 1563397649696
246, 11883.46, 0.00, 0.00, 0.00, 0.00, 0.00, 0.00, 0.00, 0.000, 0.000, 0.000, 17:07:29.696, 1563397649696
247, 11887.24, 0.00, 0.00, 0.00, 0.00, 0.00, 0.00, 0.00, 0.000, 0.000, 0.000, 17:07:29.696, 1563397649696
248, 11888.20, 0.00, 0.00, 0.00, 0.00, 0.00, 0.00, 0.00, 0.000, 0.000, 0.000, 17:07:29.696, 1563397649696
249, 11887.64, 0.00, 0.00, 0.00, 0.00, 0.00, 0.00, 0.00, 0.000, 0.000, 0.000, 17:07:29.696, 1563397649696
250, 11885.36, 0.00, 0.00, 0.00, 0.00, 0.00, 0.00, 0.00, 0.000, 0.000, 0.000, 17:07:29.696, 1563397649696
251, 11886.50, 0.00, 0.00, 0.00, 0.00, 0.00, 0.00, 0.00, 0.000, 0.000, 0.000, 17:07:29.696, 1563397649696
252, 11886.12, 0.00, 0.00, 0.00, 0.00, 0.00, 0.00, 0.00, 0.122, -0.072, 1.024, 17:07:29.696, 1563397649696
253, 11882.99, 0.00, 0.00, 0.00, 0.00, 0.00, 0.00, 0.00, 0.000, 0.000, 0.000, 17:07:29.696, 1563397649696
254, 11888.58, 0.00, 0.00, 0.00, 0.00, 0.00, 0.00, 0.00, 0.000, 0.000, 0.000, 17:07:29.696, 1563397649696
255, 11882.97, 0.00, 0.00, 0.00, 0.00, 0.00, 0.00, 0.00, 0.000, 0.000, 0.000, 17:07:29.696, 1563397649696
0, 11884.85, 0.00, 0.00, 0.00, 0.00, 0.00, 0.00, 0.00, 0.000, 0.000, 0.000, 17:07:29.696, 1563397649696
1, 11885.96, 0.00, 0.00, 0.00, 0.00, 0.00, 0.00, 0.00, 0.000, 0.000, 0.000, 17:07:29.696, 1563397649696
2, 11882.88, 0.00, 0.00, 0.00, 0.00, 0.00, 0.00, 0.00, 0.000, 0.000, 0.000, 17:07:29.696, 1563397649696
3, 11881.16, 0.00, 0.00, 0.00, 0.00, 0.00, 0.00, 0.00, 0.000, 0.000, 0.000, 17:07:29.696, 1563397649696
4, 11888.40, 0.00, 0.00, 0.00, 0.00, 0.00, 0.00, 0.00, 0.000, 0.000, 0.000, 17:07:29.697, 1563397649697
5, 11896.16, 0.00, 0.00, 0.00, 0.00, 0.00, 0.00, 0.00, 0.000, 0.000, 0.000, 17:07:29.697, 1563397649697
6, 11893.94, 0.00, 0.00, 0.00, 0.00, 0.00, 0.00, 0.00, 0.120, -0.068, 1.020, 17:07:29.697, 1563397649697
7, 11892.45, 0.00, 0.00, 0.00, 0.00, 0.00, 0.00, 0.00, 0.000, 0.000, 0.000, 17:07:29.697, 1563397649697
8, 11892.36, 0.00, 0.00, 0.00, 0.00, 0.00, 0.00, 0.00, 0.000, 0.000, 0.000, 17:07:29.697, 1563397649697
9, 11890.68, 0.00, 0.00, 0.00, 0.00, 0.00, 0.00, 0.00, 0.000, 0.000, 0.000, 17:07:29.697, 1563397649697
10, 11888.98, 0.00, 0.00, 0.00, 0.00, 0.00, 0.00, 0.00, 0.000, 0.000, 0.000, 17:07:29.697, 1563397649697
11, 11881.05, 0.00, 0.00, 0.00, 0.00, 0.00, 0.00, 0.00, 0.000, 0.000, 0.000, 17:07:29.697, 1563397649697
12, 11878.99, 0.00, 0.00, 0.00, 0.00, 0.00, 0.00, 0.00, 0.000, 0.000, 0.000, 17:07:29.697, 1563397649697
13, 11879.95, 0.00, 0.00, 0.00, 0.00, 0.00, 0.00, 0.00, 0.000, 0.000, 0.000, 17:07:29.697, 1563397649697
14, 11880.15, 0.00, 0.00, 0.00, 0.00, 0.00, 0.00, 0.00, 0.000, 0.000, 0.000, 17:07:29.697, 1563397649697
15, 11884.27, 0.00, 0.00, 0.00, 0.00, 0.00, 0.00, 0.00, 0.000, 0.000, 0.000, 17:07:29.697, 1563397649697
16, 11882.68, 0.00, 0.00, 0.00, 0.00, 0.00, 0.00, 0.00, 0.000, 0.000, 0.000, 17:07:29.697, 1563397649697
17, 11886.77, 0.00, 0.00, 0.00, 0.00, 0.00, 0.00, 0.00, 0.116, -0.072, 1.020, 17:07:29.697, 1563397649697
18, 11887.55, 0.00, 0.00, 0.00, 0.00, 0.00, 0.00, 0.00, 0.000, 0.000, 0.000, 17:07:29.697, 1563397649697
19, 11879.42, 0.00, 0.00, 0.00, 0.00, 0.00, 0.00, 0.00, 0.000, 0.000, 0.000, 17:07:29.697, 1563397649697
20, 11873.27, 0.00, 0.00, 0.00, 0.00, 0.00, 0.00, 0.00, 0.000, 0.000, 0.000, 17:07:29.697, 1563397649697
21, 11868.69, 0.00, 0.00, 0.00, 0.00, 0.00, 0.00, 0.00, 0.000, 0.000, 0.000, 17:07:29.697, 1563397649697
22, 11872.91, 0.00, 0.00, 0.00, 0.00, 0.00, 0.00, 0.00, 0.000, 0.000, 0.000, 17:07:29.697, 1563397649697
23, 11878.45, 0.00, 0.00, 0.00, 0.00, 0.00, 0.00, 0.00, 0.000, 0.000, 0.000, 17:07:29.697, 1563397649697
24, 11877.02, 0.00, 0.00, 0.00, 0.00, 0.00, 0.00, 0.00, 0.000, 0.000, 0.000, 17:07:29.697, 1563397649697
25, 11871.91, 0.00, 0.00, 0.00, 0.00, 0.00, 0.00, 0.00, 0.000, 0.000, 0.000, 17:07:29.697, 1563397649697
26, 11859.57, 0.00, 0.00, 0.00, 0.00, 0.00, 0.00, 0.00, 0.000, 0.000, 0.000, 17:07:29.697, 1563397649697
27, 11851.83, 0.00, 0.00, 0.00, 0.00, 0.00, 0.00, 0.00, 0.116, -0.066, 1.024, 17:07:29.697, 1563397649697
28, 11861.89, 0.00, 0.00, 0.00, 0.00, 0.00, 0.00, 0.00, 0.000, 0.000, 0.000, 17:07:29.697, 1563397649697
29, 11867.08, 0.00, 0.00, 0.00, 0.00, 0.00, 0.00, 0.00, 0.000, 0.000, 0.000, 17:07:29.697, 1563397649697
30, 11861.65, 0.00, 0.00, 0.00, 0.00, 0.00, 0.00, 0.00, 0.000, 0.000, 0.000, 17:07:29.697, 1563397649697
31, 11861.31, 0.00, 0.00, 0.00, 0.00, 0.00, 0.00, 0.00, 0.000, 0.000, 0.000, 17:07:29.697, 1563397649697
32, 11857.85, 0.00, 0.00, 0.00, 0.00, 0.00, 0.00, 0.00, 0.000, 0.000, 0.000, 17:07:29.697, 1563397649697
33, 11858.70, 0.00, 0.00, 0.00, 0.00, 0.00, 0.00, 0.00, 0.000, 0.000, 0.000, 17:07:29.697, 1563397649697
34, 11883.57, 0.00, 0.00, 0.00, 0.00, 0.00, 0.00, 0.00, 0.000, 0.000, 0.000, 17:07:29.697, 1563397649697
35, 11876.89, 0.00, 0.00, 0.00, 0.00, 0.00, 0.00, 0.00, 0.000, 0.000, 0.000, 17:07:29.697, 1563397649697
36, 11873.31, 0.00, 0.00, 0.00, 0.00, 0.00, 0.00, 0.00, 0.000, 0.000, 0.000, 17:07:29.697, 1563397649697
37, 11863.39, 0.00, 0.00, 0.00, 0.00, 0.00, 0.00, 0.00, 0.120, -0.066, 1.020, 17:07:29.697, 1563397649697
38, 11857.11, 0.00, 0.00, 0.00, 0.00, 0.00, 0.00, 0.00, 0.000, 0.000, 0.000, 17:07:29.698, 1563397649698
39, 11864.84, 0.00, 0.00, 0.00, 0.00, 0.00, 0.00, 0.00, 0.000, 0.000, 0.000, 17:07:29.698, 1563397649698
40, 11869.80, 0.00, 0.00, 0.00, 0.00, 0.00, 0.00, 0.00, 0.000, 0.000, 0.000, 17:07:29.698, 1563397649698
41, 11866.41, 0.00, 0.00, 0.00, 0.00, 0.00, 0.00, 0.00, 0.000, 0.000, 0.000, 17:07:29.698, 1563397649698
42, 11861.42, 0.00, 0.00, 0.00, 0.00, 0.00, 0.00, 0.00, 0.000, 0.000, 0.000, 17:07:29.698, 1563397649698
43, 11858.76, 0.00, 0.00, 0.00, 0.00, 0.00, 0.00, 0.00, 0.000, 0.000, 0.000, 17:07:29.698, 1563397649698
44, 11862.38, 0.00, 0.00, 0.00, 0.00, 0.00, 0.00, 0.00, 0.000, 0.000, 0.000, 17:07:29.698, 1563397649698
45, 11869.07, 0.00, 0.00, 0.00, 0.00, 0.00, 0.00, 0.00, 0.000, 0.000, 0.000, 17:07:29.698, 1563397649698
46, 11872.91, 0.00, 0.00, 0.00, 0.00, 0.00, 0.00, 0.00, 0.000, 0.000, 0.000, 17:07:29.698, 1563397649698
47, 11862.81, 0.00, 0.00, 0.00, 0.00, 0.00, 0.00, 0.00, 0.118, -0.070, 1.024, 17:07:29.698, 1563397649698
48, 11858.70, 0.00, 0.00, 0.00, 0.00, 0.00, 0.00, 0.00, 0.000, 0.000, 0.000, 17:07:29.698, 1563397649698
49, 11859.30, 0.00, 0.00, 0.00, 0.00, 0.00, 0.00, 0.00, 0.000, 0.000, 0.000, 17:07:29.698, 1563397649698
50, 11862.88, 0.00, 0.00, 0.00, 0.00, 0.00, 0.00, 0.00, 0.000, 0.000, 0.000, 17:07:29.698, 1563397649698
51, 11865.04, 0.00, 0.00, 0.00, 0.00, 0.00, 0.00, 0.00, 0.000, 0.000, 0.000, 17:07:29.698, 1563397649698
52, 11869.56, 0.00, 0.00, 0.00, 0.00, 0.00, 0.00, 0.00, 0.000, 0.000, 0.000, 17:07:29.698, 1563397649698
53, 11860.91, 0.00, 0.00, 0.00, 0.00, 0.00, 0.00, 0.00, 0.000, 0.000, 0.000, 17:07:29.698, 1563397649698
54, 11857.22, 0.00, 0.00, 0.00, 0.00, 0.00, 0.00, 0.00, 0.000, 0.000, 0.000, 17:07:29.698, 1563397649698
55, 11861.13, 0.00, 0.00, 0.00, 0.00, 0.00, 0.00, 0.00, 0.000, 0.000, 0.000, 17:07:29.698, 1563397649698
56, 11858.07, 0.00, 0.00, 0.00, 0.00, 0.00, 0.00, 0.00, 0.000, 0.000, 0.000, 17:07:29.698, 1563397649698
57, 11867.01, 0.00, 0.00, 0.00, 0.00, 0.00, 0.00, 0.00, 0.118, -0.068, 1.024, 17:07:29.698, 1563397649698
58, 11877.85, 0.00, 0.00, 0.00, 0.00, 0.00, 0.00, 0.00, 0.000, 0.000, 0.000, 17:07:29.698, 1563397649698
59, 11880.73, 0.00, 0.00, 0.00, 0.00, 0.00, 0.00, 0.00, 0.000, 0.000, 0.000, 17:07:29.698, 1563397649698
60, 11873.09, 0.00, 0.00, 0.00, 0.00, 0.00, 0.00, 0.00, 0.000, 0.000, 0.000, 17:07:29.698, 1563397649698
61, 11872.33, 0.00, 0.00, 0.00, 0.00, 0.00, 0.00, 0.00, 0.000, 0.000, 0.000, 17:07:29.698, 1563397649698
62, 11880.87, 0.00, 0.00, 0.00, 0.00, 0.00, 0.00, 0.00, 0.000, 0.000, 0.000, 17:07:29.698, 1563397649698
63, 11883.17, 0.00, 0.00, 0.00, 0.00, 0.00, 0.00, 0.00, 0.000, 0.000, 0.000, 17:07:29.698, 1563397649698
64, 11880.73, 0.00, 0.00, 0.00, 0.00, 0.00, 0.00, 0.00, 0.000, 0.000, 0.000, 17:07:29.698, 1563397649698
65, 11871.86, 0.00, 0.00, 0.00, 0.00, 0.00, 0.00, 0.00, 0.000, 0.000, 0.000, 17:07:29.698, 1563397649698
66, 11864.95, 0.00, 0.00, 0.00, 0.00, 0.00, 0.00, 0.00, 0.000, 0.000, 0.000, 17:07:29.698, 1563397649698
67, 11865.04, 0.00, 0.00, 0.00, 0.00, 0.00, 0.00, 0.00, 0.000, 0.000, 0.000, 17:07:29.698, 1563397649698
68, 11868.87, 0.00, 0.00, 0.00, 0.00, 0.00, 0.00, 0.00, 0.118, -0.072, 1.028, 17:07:29.698, 1563397649698
69, 11873.34, 0.00, 0.00, 0.00, 0.00, 0.00, 0.00, 0.00, 0.000, 0.000, 0.000, 17:07:29.698, 1563397649698
70, 11876.33, 0.00, 0.00, 0.00, 0.00, 0.00, 0.00, 0.00, 0.000, 0.000, 0.000, 17:07:29.698, 1563397649698
71, 11881.58, 0.00, 0.00, 0.00, 0.00, 0.00, 0.00, 0.00, 0.000, 0.000, 0.000, 17:07:29.698, 1563397649698
72, 11889.07, 0.00, 0.00, 0.00, 0.00, 0.00, 0.00, 0.00, 0.000, 0.000, 0.000, 17:07:29.698, 1563397649698
73, 11893.54, 0.00, 0.00, 0.00, 0.00, 0.00, 0.00, 0.00, 0.000, 0.000, 0.000, 17:07:29.699, 1563397649699
74, 11900.14, 0.00, 0.00, 0.00, 0.00, 0.00, 0.00, 0.00, 0.000, 0.000, 0.000, 17:07:29.699, 1563397649699
75, 11904.67, 0.00, 0.00, 0.00, 0.00, 0.00, 0.00, 0.00, 0.000, 0.000, 0.000, 17:07:29.699, 1563397649699
76, 11903.64, 0.00, 0.00, 0.00, 0.00, 0.00, 0.00, 0.00, 0.000, 0.000, 0.000, 17:07:29.699, 1563397649699
77, 11900.16, 0.00, 0.00, 0.00, 0.00, 0.00, 0.00, 0.00, 0.000, 0.000, 0.000, 17:07:29.699, 1563397649699
78, 11892.65, 0.00, 0.00, 0.00, 0.00, 0.00, 0.00, 0.00, 0.118, -0.076, 1.030, 17:07:29.699, 1563397649699
79, 11895.22, 0.00, 0.00, 0.00, 0.00, 0.00, 0.00, 0.00, 0.000, 0.000, 0.000, 17:07:29.699, 1563397649699
80, 11898.57, 0.00, 0.00, 0.00, 0.00, 0.00, 0.00, 0.00, 0.000, 0.000, 0.000, 17:07:29.699, 1563397649699
81, 11891.71, 0.00, 0.00, 0.00, 0.00, 0.00, 0.00, 0.00, 0.000, 0.000, 0.000, 17:07:29.699, 1563397649699
82, 11888.78, 0.00, 0.00, 0.00, 0.00, 0.00, 0.00, 0.00, 0.000, 0.000, 0.000, 17:07:29.699, 1563397649699
83, 11904.45, 0.00, 0.00, 0.00, 0.00, 0.00, 0.00, 0.00, 0.000, 0.000, 0.000, 17:07:29.699, 1563397649699
84, 11904.07, 0.00, 0.00, 0.00, 0.00, 0.00, 0.00, 0.00, 0.000, 0.000, 0.000, 17:07:29.699, 1563397649699
85, 11896.67, 0.00, 0.00, 0.00, 0.00, 0.00, 0.00, 0.00, 0.000, 0.000, 0.000, 17:07:29.699, 1563397649699
86, 11899.60, 0.00, 0.00, 0.00, 0.00, 0.00, 0.00, 0.00, 0.000, 0.000, 0.000, 17:07:29.699, 1563397649699
87, 11907.15, 0.00, 0.00, 0.00, 0.00, 0.00, 0.00, 0.00, 0.000, 0.000, 0.000, 17:07:29.699, 1563397649699
88, 11910.48, 0.00, 0.00, 0.00, 0.00, 0.00, 0.00, 0.00, 0.116, -0.070, 1.028, 17:07:29.699, 1563397649699
89, 11910.17, 0.00, 0.00, 0.00, 0.00, 0.00, 0.00, 0.00, 0.000, 0.000, 0.000, 17:07:29.699, 1563397649699
90, 11909.97, 0.00, 0.00, 0.00, 0.00, 0.00, 0.00, 0.00, 0.000, 0.000, 0.000, 17:07:29.699, 1563397649699
91, 11906.39, 0.00, 0.00, 0.00, 0.00, 0.00, 0.00, 0.00, 0.000, 0.000, 0.000, 17:07:29.699, 1563397649699
92, 11903.47, 0.00, 0.00, 0.00, 0.00, 0.00, 0.00, 0.00, 0.000, 0.000, 0.000, 17:07:29.699, 1563397649699
93, 11894.95, 0.00, 0.00, 0.00, 0.00, 0.00, 0.00, 0.00, 0.000, 0.000, 0.000, 17:07:29.699, 1563397649699
94, 11888.76, 0.00, 0.00, 0.00, 0.00, 0.00, 0.00, 0.00, 0.000, 0.000, 0.000, 17:07:29.699, 1563397649699
95, 11884.00, 0.00, 0.00, 0.00, 0.00, 0.00, 0.00, 0.00, 0.000, 0.000, 0.000, 17:07:29.699, 1563397649699
96, 11876.87, 0.00, 0.00, 0.00, 0.00, 0.00, 0.00, 0.00, 0.000, 0.000, 0.000, 17:07:29.699, 1563397649699
97, 11874.99, 0.00, 0.00, 0.00, 0.00, 0.00, 0.00, 0.00, 0.000, 0.000, 0.000, 17:07:29.699, 1563397649699
98, 11876.55, 0.00, 0.00, 0.00, 0.00, 0.00, 0.00, 0.00, 0.114, -0.074, 1.022, 17:07:29.700, 1563397649700
99, 11876.73, 0.00, 0.00, 0.00, 0.00, 0.00, 0.00, 0.00, 0.000, 0.000, 0.000, 17:07:29.700, 1563397649700
100, 11876.04, 0.00, 0.00, 0.00, 0.00, 0.00, 0.00, 0.00, 0.000, 0.000, 0.000, 17:07:29.700, 1563397649700
101, 11876.11, 0.00, 0.00, 0.00, 0.00, 0.00, 0.00, 0.00, 0.000, 0.000, 0.000, 17:07:29.700, 1563397649700
102, 11877.54, 0.00, 0.00, 0.00, 0.00, 0.00, 0.00, 0.00, 0.000, 0.000, 0.000, 17:07:29.700, 1563397649700
103, 11878.92, 0.00, 0.00, 0.00, 0.00, 0.00, 0.00, 0.00, 0.000, 0.000, 0.000, 17:07:29.700, 1563397649700
104, 11878.57, 0.00, 0.00, 0.00, 0.00, 0.00, 0.00, 0.00, 0.000, 0.000, 0.000, 17:07:29.700, 1563397649700
105, 11863.17, 0.00, 0.00, 0.00, 0.00, 0.00, 0.00, 0.00, 0.000, 0.000, 0.000, 17:07:30.177, 1563397650177
106, 11863.99, 0.00, 0.00, 0.00, 0.00, 0.00, 0.00, 0.00, 0.000, 0.000, 0.000, 17:07:30.177, 1563397650177
107, 11876.60, 0.00, 0.00, 0.00, 0.00, 0.00, 0.00, 0.00, 0.000, 0.000, 0.000, 17:07:30.177, 1563397650177
108, 11888.02, 0.00, 0.00, 0.00, 0.00, 0.00, 0.00, 0.00, 0.114, -0.072, 1.022, 17:07:30.177, 1563397650177
109, 11878.25, 0.00, 0.00, 0.00, 0.00, 0.00, 0.00, 0.00, 0.000, 0.000, 0.000, 17:07:30.177, 1563397650177
110, 11870.36, 0.00, 0.00, 0.00, 0.00, 0.00, 0.00, 0.00, 0.000, 0.000, 0.000, 17:07:30.177, 1563397650177
111, 11885.88, 0.00, 0.00, 0.00, 0.00, 0.00, 0.00, 0.00, 0.000, 0.000, 0.000, 17:07:30.177, 1563397650177
112, 11894.08, 0.00, 0.00, 0.00, 0.00, 0.00, 0.00, 0.00, 0.000, 0.000, 0.000, 17:07:30.177, 1563397650177
113, 11888.54, 0.00, 0.00, 0.00, 0.00, 0.00, 0.00, 0.00, 0.000, 0.000, 0.000, 17:07:30.177, 1563397650177
114, 11884.49, 0.00, 0.00, 0.00, 0.00, 0.00, 0.00, 0.00, 0.000, 0.000, 0.000, 17:07:30.177, 1563397650177
115, 11880.42, 0.00, 0.00, 0.00, 0.00, 0.00, 0.00, 0.00, 0.000, 0.000, 0.000, 17:07:30.177, 1563397650177
116, 11878.01, 0.00, 0.00, 0.00, 0.00, 0.00, 0.00, 0.00, 0.000, 0.000, 0.000, 17:07:30.177, 1563397650177
117, 11879.77, 0.00, 0.00, 0.00, 0.00, 0.00, 0.00, 0.00, 0.000, 0.000, 0.000, 17:07:30.177, 1563397650177
118, 11885.96, 0.00, 0.00, 0.00, 0.00, 0.00, 0.00, 0.00, 0.120, -0.072, 1.024, 17:07:30.177, 1563397650177
119, 11889.03, 0.00, 0.00, 0.00, 0.00, 0.00, 0.00, 0.00, 0.000, 0.000, 0.000, 17:07:30.177, 1563397650177
120, 11887.39, 0.00, 0.00, 0.00, 0.00, 0.00, 0.00, 0.00, 0.000, 0.000, 0.000, 17:07:30.177, 1563397650177
121, 11887.91, 0.00, 0.00, 0.00, 0.00, 0.00, 0.00, 0.00, 0.000, 0.000, 0.000, 17:07:30.177, 1563397650177
122, 11887.91, 0.00, 0.00, 0.00, 0.00, 0.00, 0.00, 0.00, 0.000, 0.000, 0.000, 17:07:30.177, 1563397650177
123, 11888.09, 0.00, 0.00, 0.00, 0.00, 0.00, 0.00, 0.00, 0.000, 0.000, 0.000, 17:07:30.177, 1563397650177
124, 11887.98, 0.00, 0.00, 0.00, 0.00, 0.00, 0.00, 0.00, 0.000, 0.000, 0.000, 17:07:30.177, 1563397650177
125, 11872.89, 0.00, 0.00, 0.00, 0.00, 0.00, 0.00, 0.00, 0.000, 0.000, 0.000, 17:07:30.177, 1563397650177
126, 11857.91, 0.00, 0.00, 0.00, 0.00, 0.00, 0.00, 0.00, 0.000, 0.000, 0.000, 17:07:30.177, 1563397650177
127, 11862.03, 0.00, 0.00, 0.00, 0.00, 0.00, 0.00, 0.00, 0.000, 0.000, 0.000, 17:07:30.177, 1563397650177
128, 11868.98, 0.00, 0.00, 0.00, 0.00, 0.00, 0.00, 0.00, 0.000, 0.000, 0.000, 17:07:30.177, 1563397650177
129, 11873.58, 0.00, 0.00, 0.00, 0.00, 0.00, 0.00, 0.00, 0.122, -0.074, 1.026, 17:07:30.177, 1563397650177
130, 11876.58, 0.00, 0.00, 0.00, 0.00, 0.00, 0.00, 0.00, 0.000, 0.000, 0.000, 17:07:30.177, 1563397650177
131, 11879.62, 0.00, 0.00, 0.00, 0.00, 0.00, 0.00, 0.00, 0.000, 0.000, 0.000, 17:07:30.177, 1563397650177
132, 11887.39, 0.00, 0.00, 0.00, 0.00, 0.00, 0.00, 0.00, 0.000, 0.000, 0.000, 17:07:30.177, 1563397650177
133, 11891.22, 0.00, 0.00, 0.00, 0.00, 0.00, 0.00, 0.00, 0.000, 0.000, 0.000, 17:07:30.177, 1563397650177
134, 11887.66, 0.00, 0.00, 0.00, 0.00, 0.00, 0.00, 0.00, 0.000, 0.000, 0.000, 17:07:30.177, 1563397650177
135, 11888.11, 0.00, 0.00, 0.00, 0.00, 0.00, 0.00, 0.00, 0.000, 0.000, 0.000, 17:07:30.178, 1563397650178
136, 11882.66, 0.00, 0.00, 0.00, 0.00, 0.00, 0.00, 0.00, 0.000, 0.000, 0.000, 17:07:30.178, 1563397650178
137, 11874.27, 0.00, 0.00, 0.00, 0.00, 0.00, 0.00, 0.00, 0.000, 0.000, 0.000, 17:07:30.178, 1563397650178
138, 11874.16, 0.00, 0.00, 0.00, 0.00, 0.00, 0.00, 0.00, 0.000, 0.000, 0.000, 17:07:30.178, 1563397650178
139, 11877.69, 0.00, 0.00, 0.00, 0.00, 0.00, 0.00, 0.00, 0.124, -0.076, 1.026, 17:07:30.178, 1563397650178
140, 11881.16, 0.00, 0.00, 0.00, 0.00, 0.00, 0.00, 0.00, 0.000, 0.000, 0.000, 17:07:30.178, 1563397650178
141, 11877.45, 0.00, 0.00, 0.00, 0.00, 0.00, 0.00, 0.00, 0.000, 0.000, 0.000, 17:07:30.178, 1563397650178
142, 11867.35, 0.00, 0.00, 0.00, 0.00, 0.00, 0.00, 0.00, 0.000, 0.000, 0.000, 17:07:30.178, 1563397650178
143, 11854.43, 0.00, 0.00, 0.00, 0.00, 0.00, 0.00, 0.00, 0.000, 0.000, 0.000, 17:07:30.178, 1563397650178
144, 11849.38, 0.00, 0.00, 0.00, 0.00, 0.00, 0.00, 0.00, 0.000, 0.000, 0.000, 17:07:30.178, 1563397650178
145, 11860.13, 0.00, 0.00, 0.00, 0.00, 0.00, 0.00, 0.00, 0.000, 0.000, 0.000, 17:07:30.178, 1563397650178
146, 11869.36, 0.00, 0.00, 0.00, 0.00, 0.00, 0.00, 0.00, 0.000, 0.000, 0.000, 17:07:30.178, 1563397650178
147, 11865.40, 0.00, 0.00, 0.00, 0.00, 0.00, 0.00, 0.00, 0.000, 0.000, 0.000, 17:07:30.178, 1563397650178
148, 11851.05, 0.00, 0.00, 0.00, 0.00, 0.00, 0.00, 0.00, 0.000, 0.000, 0.000, 17:07:30.178, 1563397650178
149, 11857.51, 0.00, 0.00, 0.00, 0.00, 0.00, 0.00, 0.00, 0.120, -0.080, 1.024, 17:07:30.178, 1563397650178
150, 11857.82, 0.00, 0.00, 0.00, 0.00, 0.00, 0.00, 0.00, 0.000, 0.000, 0.000, 17:07:30.178, 1563397650178
151, 11860.42, 0.00, 0.00, 0.00, 0.00, 0.00, 0.00, 0.00, 0.000, 0.000, 0.000, 17:07:30.178, 1563397650178
152, 11857.35, 0.00, 0.00, 0.00, 0.00, 0.00, 0.00, 0.00, 0.000, 0.000, 0.000, 17:07:30.178, 1563397650178
153, 11854.31, 0.00, 0.00, 0.00, 0.00, 0.00, 0.00, 0.00, 0.000, 0.000, 0.000, 17:07:30.178, 1563397650178
154, 11851.14, 0.00, 0.00, 0.00, 0.00, 0.00, 0.00, 0.00, 0.000, 0.000, 0.000, 17:07:30.178, 1563397650178
155, 11850.54, 0.00, 0.00, 0.00, 0.00, 0.00, 0.00, 0.00, 0.000, 0.000, 0.000, 17:07:30.178, 1563397650178
156, 11853.15, 0.00, 0.00, 0.00, 0.00, 0.00, 0.00, 0.00, 0.000, 0.000, 0.000, 17:07:30.178, 1563397650178
157, 11856.19, 0.00, 0.00, 0.00, 0.00, 0.00, 0.00, 0.00, 0.000, 0.000, 0.000, 17:07:30.178, 1563397650178
158, 11858.14, 0.00, 0.00, 0.00, 0.00, 0.00, 0.00, 0.00, 0.000, 0.000, 0.000, 17:07:30.178, 1563397650178
159, 11862.99, 0.00, 0.00, 0.00, 0.00, 0.00, 0.00, 0.00, 0.116, -0.076, 1.024, 17:07:30.178, 1563397650178
160, 11852.88, 0.00, 0.00, 0.00, 0.00, 0.00, 0.00, 0.00, 0.000, 0.000, 0.000, 17:07:30.178, 1563397650178
161, 11853.22, 0.00, 0.00, 0.00, 0.00, 0.00, 0.00, 0.00, 0.000, 0.000, 0.000, 17:07:30.178, 1563397650178
162, 11859.10, 0.00, 0.00, 0.00, 0.00, 0.00, 0.00, 0.00, 0.000, 0.000, 0.000, 17:07:30.178, 1563397650178
163, 11867.12, 0.00, 0.00, 0.00, 0.00, 0.00, 0.00, 0.00, 0.000, 0.000, 0.000, 17:07:30.178, 1563397650178
164, 11865.40, 0.00, 0.00, 0.00, 0.00, 0.00, 0.00, 0.00, 0.000, 0.000, 0.000, 17:07:30.178, 1563397650178
165, 11850.65, 0.00, 0.00, 0.00, 0.00, 0.00, 0.00, 0.00, 0.000, 0.000, 0.000, 17:07:30.178, 1563397650178
166, 11848.41, 0.00, 0.00, 0.00, 0.00, 0.00, 0.00, 0.00, 0.000, 0.000, 0.000, 17:07:30.178, 1563397650178
167, 11850.42, 0.00, 0.00, 0.00, 0.00, 0.00, 0.00, 0.00, 0.000, 0.000, 0.000, 17:07:30.178, 1563397650178
168, 11855.43, 0.00, 0.00, 0.00, 0.00, 0.00, 0.00, 0.00, 0.000, 0.000, 0.000, 17:07:30.178, 1563397650178
169, 11862.54, 0.00, 0.00, 0.00, 0.00, 0.00, 0.00, 0.00, 0.120, -0.082, 1.026, 17:07:30.178, 1563397650178
170, 11858.81, 0.00, 0.00, 0.00, 0.00, 0.00, 0.00, 0.00, 0.000, 0.000, 0.000, 17:07:30.178, 1563397650178
171, 11856.62, 0.00, 0.00, 0.00, 0.00, 0.00, 0.00, 0.00, 0.000, 0.000, 0.000, 17:07:30.179, 1563397650179
172, 11862.52, 0.00, 0.00, 0.00, 0.00, 0.00, 0.00, 0.00, 0.000, 0.000, 0.000, 17:07:30.179, 1563397650179
173, 11867.48, 0.00, 0.00, 0.00, 0.00, 0.00, 0.00, 0.00, 0.000, 0.000, 0.000, 17:07:30.179, 1563397650179
174, 11869.51, 0.00, 0.00, 0.00, 0.00, 0.00, 0.00, 0.00, 0.000, 0.000, 0.000, 17:07:30.179, 1563397650179
175, 11867.64, 0.00, 0.00, 0.00, 0.00, 0.00, 0.00, 0.00, 0.000, 0.000, 0.000, 17:07:30.179, 1563397650179
176, 11866.67, 0.00, 0.00, 0.00, 0.00, 0.00, 0.00, 0.00, 0.000, 0.000, 0.000, 17:07:30.179, 1563397650179
177, 11863.61, 0.00, 0.00, 0.00, 0.00, 0.00, 0.00, 0.00, 0.000, 0.000, 0.000, 17:07:30.179, 1563397650179
178, 11863.52, 0.00, 0.00, 0.00, 0.00, 0.00, 0.00, 0.00, 0.000, 0.000, 0.000, 17:07:30.179, 1563397650179
179, 11863.68, 0.00, 0.00, 0.00, 0.00, 0.00, 0.00, 0.00, 0.000, 0.000, 0.000, 17:07:30.179, 1563397650179
180, 11861.09, 0.00, 0.00, 0.00, 0.00, 0.00, 0.00, 0.00, 0.122, -0.076, 1.026, 17:07:30.179, 1563397650179
181, 11861.18, 0.00, 0.00, 0.00, 0.00, 0.00, 0.00, 0.00, 0.000, 0.000, 0.000, 17:07:30.179, 1563397650179
182, 11862.27, 0.00, 0.00, 0.00, 0.00, 0.00, 0.00, 0.00, 0.000, 0.000, 0.000, 17:07:30.179, 1563397650179
183, 11857.89, 0.00, 0.00, 0.00, 0.00, 0.00, 0.00, 0.00, 0.000, 0.000, 0.000, 17:07:30.179, 1563397650179
184, 11861.06, 0.00, 0.00, 0.00, 0.00, 0.00, 0.00, 0.00, 0.000, 0.000, 0.000, 17:07:30.179, 1563397650179
185, 11870.14, 0.00, 0.00, 0.00, 0.00, 0.00, 0.00, 0.00, 0.000, 0.000, 0.000, 17:07:30.179, 1563397650179
186, 11876.17, 0.00, 0.00, 0.00, 0.00, 0.00, 0.00, 0.00, 0.000, 0.000, 0.000, 17:07:30.179, 1563397650179
187, 11877.87, 0.00, 0.00, 0.00, 0.00, 0.00, 0.00, 0.00, 0.000, 0.000, 0.000, 17:07:30.179, 1563397650179
188, 11874.27, 0.00, 0.00, 0.00, 0.00, 0.00, 0.00, 0.00, 0.000, 0.000, 0.000, 17:07:30.179, 1563397650179
189, 11875.57, 0.00, 0.00, 0.00, 0.00, 0.00, 0.00, 0.00, 0.000, 0.000, 0.000, 17:07:30.179, 1563397650179
190, 11875.21, 0.00, 0.00, 0.00, 0.00, 0.00, 0.00, 0.00, 0.126, -0.076, 1.024, 17:07:30.179, 1563397650179
191, 11867.66, 0.00, 0.00, 0.00, 0.00, 0.00, 0.00, 0.00, 0.000, 0.000, 0.000, 17:07:30.179, 1563397650179
192, 11870.65, 0.00, 0.00, 0.00, 0.00, 0.00, 0.00, 0.00, 0.000, 0.000, 0.000, 17:07:30.179, 1563397650179
193, 11871.44, 0.00, 0.00, 0.00, 0.00, 0.00, 0.00, 0.00, 0.000, 0.000, 0.000, 17:07:30.179, 1563397650179
194, 11873.49, 0.00, 0.00, 0.00, 0.00, 0.00, 0.00, 0.00, 0.000, 0.000, 0.000, 17:07:30.179, 1563397650179
195, 11878.37, 0.00, 0.00, 0.00, 0.00, 0.00, 0.00, 0.00, 0.000, 0.000, 0.000, 17:07:30.179, 1563397650179
196, 11876.24, 0.00, 0.00, 0.00, 0.00, 0.00, 0.00, 0.00, 0.000, 0.000, 0.000, 17:07:30.179, 1563397650179
197, 11867.19, 0.00, 0.00, 0.00, 0.00, 0.00, 0.00, 0.00, 0.000, 0.000, 0.000, 17:07:30.179, 1563397650179
198, 11863.28, 0.00, 0.00, 0.00, 0.00, 0.00, 0.00, 0.00, 0.000, 0.000, 0.000, 17:07:30.179, 1563397650179
199, 11870.36, 0.00, 0.00, 0.00, 0.00, 0.00, 0.00, 0.00, 0.000, 0.000, 0.000, 17:07:30.179, 1563397650179
200, 11877.14, 0.00, 0.00, 0.00, 0.00, 0.00, 0.00, 0.00, 0.120, -0.074, 1.018, 17:07:30.179, 1563397650179
201, 11877.31, 0.00, 0.00, 0.00, 0.00, 0.00, 0.00, 0.00, 0.000, 0.000, 0.000, 17:07:30.179, 1563397650179
202, 11869.47, 0.00, 0.00, 0.00, 0.00, 0.00, 0.00, 0.00, 0.000, 0.000, 0.000, 17:07:30.179, 1563397650179
203, 11862.76, 0.00, 0.00, 0.00, 0.00, 0.00, 0.00, 0.00, 0.000, 0.000, 0.000, 17:07:30.179, 1563397650179
204, 11865.07, 0.00, 0.00, 0.00, 0.00, 0.00, 0.00, 0.00, 0.000, 0.000, 0.000, 17:07:30.179, 1563397650179
205, 11866.90, 0.00, 0.00, 0.00, 0.00, 0.00, 0.00, 0.00, 0.000, 0.000, 0.000, 17:07:30.180, 1563397650180
206, 11865.83, 0.00, 0.00, 0.00, 0.00, 0.00, 0.00, 0.00, 0.000, 0.000, 0.000, 17:07:30.180, 1563397650180
207, 11856.50, 0.00, 0.00, 0.00, 0.00, 0.00, 0.00, 0.00, 0.000, 0.000, 0.000, 17:07:30.180, 1563397650180
208, 11847.99, 0.00, 0.00, 0.00, 0.00, 0.00, 0.00, 0.00, 0.000, 0.000, 0.000, 17:07:30.180, 1563397650180
209, 11847.25, 0.00, 0.00, 0.00, 0.00, 0.00, 0.00, 0.00, 0.000, 0.000, 0.000, 17:07:30.180, 1563397650180
210, 11850.20, 0.00, 0.00, 0.00, 0.00, 0.00, 0.00, 0.00, 0.116, -0.076, 1.022, 17:07:30.180, 1563397650180
211, 11846.00, 0.00, 0.00, 0.00, 0.00, 0.00, 0.00, 0.00, 0.000, 0.000, 0.000, 17:07:30.180, 1563397650180
212, 11853.17, 0.00, 0.00, 0.00, 0.00, 0.00, 0.00, 0.00, 0.000, 0.000, 0.000, 17:07:30.180, 1563397650180
213, 11852.41, 0.00, 0.00, 0.00, 0.00, 0.00, 0.00, 0.00, 0.000, 0.000, 0.000, 17:07:30.180, 1563397650180
214, 11852.03, 0.00, 0.00, 0.00, 0.00, 0.00, 0.00, 0.00, 0.000, 0.000, 0.000, 17:07:30.180, 1563397650180
215, 11869.56, 0.00, 0.00, 0.00, 0.00, 0.00, 0.00, 0.00, 0.000, 0.000, 0.000, 17:07:30.180, 1563397650180
216, 11875.10, 0.00, 0.00, 0.00, 0.00, 0.00, 0.00, 0.00, 0.000, 0.000, 0.000, 17:07:30.180, 1563397650180
217, 11865.85, 0.00, 0.00, 0.00, 0.00, 0.00, 0.00, 0.00, 0.000, 0.000, 0.000, 17:07:30.180, 1563397650180
218, 11854.60, 0.00, 0.00, 0.00, 0.00, 0.00, 0.00, 0.00, 0.000, 0.000, 0.000, 17:07:30.180, 1563397650180
219, 11856.59, 0.00, 0.00, 0.00, 0.00, 0.00, 0.00, 0.00, 0.000, 0.000, 0.000, 17:07:30.180, 1563397650180
220, 11863.21, 0.00, 0.00, 0.00, 0.00, 0.00, 0.00, 0.00, 0.112, -0.076, 1.026, 17:07:30.180, 1563397650180
221, 11868.69, 0.00, 0.00, 0.00, 0.00, 0.00, 0.00, 0.00, 0.000, 0.000, 0.000, 17:07:30.180, 1563397650180
222, 11866.23, 0.00, 0.00, 0.00, 0.00, 0.00, 0.00, 0.00, 0.000, 0.000, 0.000, 17:07:30.180, 1563397650180
223, 11863.46, 0.00, 0.00, 0.00, 0.00, 0.00, 0.00, 0.00, 0.000, 0.000, 0.000, 17:07:30.180, 1563397650180
224, 11859.86, 0.00, 0.00, 0.00, 0.00, 0.00, 0.00, 0.00, 0.000, 0.000, 0.000, 17:07:30.180, 1563397650180
225, 11851.65, 0.00, 0.00, 0.00, 0.00, 0.00, 0.00, 0.00, 0.000, 0.000, 0.000, 17:07:30.657, 1563397650657
226, 11854.49, 0.00, 0.00, 0.00, 0.00, 0.00, 0.00, 0.00, 0.000, 0.000, 0.000, 17:07:30.657, 1563397650657
227, 11857.29, 0.00, 0.00, 0.00, 0.00, 0.00, 0.00, 0.00, 0.000, 0.000, 0.000, 17:07:30.657, 1563397650657
228, 11862.07, 0.00, 0.00, 0.00, 0.00, 0.00, 0.00, 0.00, 0.000, 0.000, 0.000, 17:07:30.657, 1563397650657
229, 11868.71, 0.00, 0.00, 0.00, 0.00, 0.00, 0.00, 0.00, 0.000, 0.000, 0.000, 17:07:30.657, 1563397650657
230, 11864.10, 0.00, 0.00, 0.00, 0.00, 0.00, 0.00, 0.00, 0.116, -0.078, 1.024, 17:07:30.657, 1563397650657
231, 11866.47, 0.00, 0.00, 0.00, 0.00, 0.00, 0.00, 0.00, 0.000, 0.000, 0.000, 17:07:30.657, 1563397650657
232, 11866.18, 0.00, 0.00, 0.00, 0.00, 0.00, 0.00, 0.00, 0.000, 0.000, 0.000, 17:07:30.657, 1563397650657
233, 11862.70, 0.00, 0.00, 0.00, 0.00, 0.00, 0.00, 0.00, 0.000, 0.000, 0.000, 17:07:30.657, 1563397650657
234, 11856.17, 0.00, 0.00, 0.00, 0.00, 0.00, 0.00, 0.00, 0.000, 0.000, 0.000, 17:07:30.657, 1563397650657
235, 11844.77, 0.00, 0.00, 0.00, 0.00, 0.00, 0.00, 0.00, 0.000, 0.000, 0.000, 17:07:30.657, 1563397650657
236, 11844.32, 0.00, 0.00, 0.00, 0.00, 0.00, 0.00, 0.00, 0.000, 0.000, 0.000, 17:07:30.657, 1563397650657
237, 11851.70, 0.00, 0.00, 0.00, 0.00, 0.00, 0.00, 0.00, 0.000, 0.000, 0.000, 17:07:30.657, 1563397650657
238, 11855.39, 0.00, 0.00, 0.00, 0.00, 0.00, 0.00, 0.00, 0.000, 0.000, 0.000, 17:07:30.657, 1563397650657
239, 11860.28, 0.00, 0.00, 0.00, 0.00, 0.00, 0.00, 0.00, 0.000, 0.000, 0.000, 17:07:30.657, 1563397650657
240, 11856.24, 0.00, 0.00, 0.00, 0.00, 0.00, 0.00, 0.00, 0.000, 0.000, 0.000, 17:07:30.657, 1563397650657
241, 11850.42, 0.00, 0.00, 0.00, 0.00, 0.00, 0.00, 0.00, 0.118, -0.076, 1.024, 17:07:30.658, 1563397650658
242, 11854.43, 0.00, 0.00, 0.00, 0.00, 0.00, 0.00, 0.00, 0.000, 0.000, 0.000, 17:07:30.658, 1563397650658
243, 11854.56, 0.00, 0.00, 0.00, 0.00, 0.00, 0.00, 0.00, 0.000, 0.000, 0.000, 17:07:30.658, 1563397650658
244, 11849.91, 0.00, 0.00, 0.00, 0.00, 0.00, 0.00, 0.00, 0.000, 0.000, 0.000, 17:07:30.658, 1563397650658
245, 11851.54, 0.00, 0.00, 0.00, 0.00, 0.00, 0.00, 0.00, 0.000, 0.000, 0.000, 17:07:30.658, 1563397650658
246, 11845.55, 0.00, 0.00, 0.00, 0.00, 0.00, 0.00, 0.00, 0.000, 0.000, 0.000, 17:07:30.658, 1563397650658
247, 11837.10, 0.00, 0.00, 0.00, 0.00, 0.00, 0.00, 0.00, 0.000, 0.000, 0.000, 17:07:30.658, 1563397650658
248, 11834.35, 0.00, 0.00, 0.00, 0.00, 0.00, 0.00, 0.00, 0.000, 0.000, 0.000, 17:07:30.658, 1563397650658
249, 11840.46, 0.00, 0.00, 0.00, 0.00, 0.00, 0.00, 0.00, 0.000, 0.000, 0.000, 17:07:30.658, 1563397650658
250, 11853.02, 0.00, 0.00, 0.00, 0.00, 0.00, 0.00, 0.00, 0.000, 0.000, 0.000, 17:07:30.658, 1563397650658
251, 11860.82, 0.00, 0.00, 0.00, 0.00, 0.00, 0.00, 0.00, 0.114, -0.074, 1.026, 17:07:30.658, 1563397650658
252, 11862.88, 0.00, 0.00, 0.00, 0.00, 0.00, 0.00, 0.00, 0.000, 0.000, 0.000, 17:07:30.658, 1563397650658
253, 11850.00, 0.00, 0.00, 0.00, 0.00, 0.00, 0.00, 0.00, 0.000, 0.000, 0.000, 17:07:30.658, 1563397650658
254, 11842.07, 0.00, 0.00, 0.00, 0.00, 0.00, 0.00, 0.00, 0.000, 0.000, 0.000, 17:07:30.658, 1563397650658
255, 11842.98, 0.00, 0.00, 0.00, 0.00, 0.00, 0.00, 0.00, 0.000, 0.000, 0.000, 17:07:30.658, 1563397650658
0, 11845.28, 0.00, 0.00, 0.00, 0.00, 0.00, 0.00, 0.00, 0.000, 0.000, 0.000, 17:07:30.658, 1563397650658
1, 11845.55, 0.00, 0.00, 0.00, 0.00, 0.00, 0.00, 0.00, 0.000, 0.000, 0.000, 17:07:30.658, 1563397650658
2, 11837.95, 0.00, 0.00, 0.00, 0.00, 0.00, 0.00, 0.00, 0.000, 0.000, 0.000, 17:07:30.658, 1563397650658
3, 11839.90, 0.00, 0.00, 0.00, 0.00, 0.00, 0.00, 0.00, 0.000, 0.000, 0.000, 17:07:30.658, 1563397650658
4, 11843.09, 0.00, 0.00, 0.00, 0.00, 0.00, 0.00, 0.00, 0.000, 0.000, 0.000, 17:07:30.658, 1563397650658
5, 11843.59, 0.00, 0.00, 0.00, 0.00, 0.00, 0.00, 0.00, 0.116, -0.066, 1.026, 17:07:30.658, 1563397650658
6, 11846.11, 0.00, 0.00, 0.00, 0.00, 0.00, 0.00, 0.00, 0.000, 0.000, 0.000, 17:07:30.658, 1563397650658
7, 11851.12, 0.00, 0.00, 0.00, 0.00, 0.00, 0.00, 0.00, 0.000, 0.000, 0.000, 17:07:30.658, 1563397650658
8, 11848.61, 0.00, 0.00, 0.00, 0.00, 0.00, 0.00, 0.00, 0.000, 0.000, 0.000, 17:07:30.658, 1563397650658
9, 11839.23, 0.00, 0.00, 0.00, 0.00, 0.00, 0.00, 0.00, 0.000, 0.000, 0.000, 17:07:30.658, 1563397650658
10, 11837.95, 0.00, 0.00, 0.00, 0.00, 0.00, 0.00, 0.00, 0.000, 0.000, 0.000, 17:07:30.658, 1563397650658
11, 11842.74, 0.00, 0.00, 0.00, 0.00, 0.00, 0.00, 0.00, 0.000, 0.000, 0.000, 17:07:30.658, 1563397650658
12, 11844.17, 0.00, 0.00, 0.00, 0.00, 0.00, 0.00, 0.00, 0.000, 0.000, 0.000, 17:07:30.658, 1563397650658
13, 11844.93, 0.00, 0.00, 0.00, 0.00, 0.00, 0.00, 0.00, 0.000, 0.000, 0.000, 17:07:30.658, 1563397650658
14, 11846.13, 0.00, 0.00, 0.00, 0.00, 0.00, 0.00, 0.00, 0.000, 0.000, 0.000, 17:07:30.658, 1563397650658
15, 11846.11, 0.00, 0.00, 0.00, 0.00, 0.00, 0.00, 0.00, 0.116, -0.070, 1.028, 17:07:30.658, 1563397650658
16, 11852.75, 0.00, 0.00, 0.00, 0.00, 0.00, 0.00, 0.00, 0.000, 0.000, 0.000, 17:07:30.658, 1563397650658
17, 11857.85, 0.00, 0.00, 0.00, 0.00, 0.00, 0.00, 0.00, 0.000, 0.000, 0.000, 17:07:30.658, 1563397650658
18, 11858.11, 0.00, 0.00, 0.00, 0.00, 0.00, 0.00, 0.00, 0.000, 0.000, 0.000, 17:07:30.659, 1563397650659
19, 11858.07, 0.00, 0.00, 0.00, 0.00, 0.00, 0.00, 0.00, 0.000, 0.000, 0.000, 17:07:30.659, 1563397650659
20, 11858.67, 0.00, 0.00, 0.00, 0.00, 0.00, 0.00, 0.00, 0.000, 0.000, 0.000, 17:07:30.659, 1563397650659
21, 11856.55, 0.00, 0.00, 0.00, 0.00, 0.00, 0.00, 0.00, 0.000, 0.000, 0.000, 17:07:30.659, 1563397650659
22, 11856.04, 0.00, 0.00, 0.00, 0.00, 0.00, 0.00, 0.00, 0.000, 0.000, 0.000, 17:07:30.659, 1563397650659
23, 11856.01, 0.00, 0.00, 0.00, 0.00, 0.00, 0.00, 0.00, 0.000, 0.000, 0.000, 17:07:30.659, 1563397650659
24, 11851.95, 0.00, 0.00, 0.00, 0.00, 0.00, 0.00, 0.00, 0.000, 0.000, 0.000, 17:07:30.659, 1563397650659
25, 11846.11, 0.00, 0.00, 0.00, 0.00, 0.00, 0.00, 0.00, 0.116, -0.068, 1.026, 17:07:30.659, 1563397650659
26, 11842.80, 0.00, 0.00, 0.00, 0.00, 0.00, 0.00, 0.00, 0.000, 0.000, 0.000, 17:07:30.659, 1563397650659
27, 11848.88, 0.00, 0.00, 0.00, 0.00, 0.00, 0.00, 0.00, 0.000, 0.000, 0.000, 17:07:30.659, 1563397650659
28, 11845.75, 0.00, 0.00, 0.00, 0.00, 0.00, 0.00, 0.00, 0.000, 0.000, 0.000, 17:07:30.659, 1563397650659
29, 11838.11, 0.00, 0.00, 0.00, 0.00, 0.00, 0.00, 0.00, 0.000, 0.000, 0.000, 17:07:30.659, 1563397650659
30, 11841.66, 0.00, 0.00, 0.00, 0.00, 0.00, 0.00, 0.00, 0.000, 0.000, 0.000, 17:07:30.659, 1563397650659
31, 11839.29, 0.00, 0.00, 0.00, 0.00, 0.00, 0.00, 0.00, 0.000, 0.000, 0.000, 17:07:30.659, 1563397650659
32, 11850.07, 0.00, 0.00, 0.00, 0.00, 0.00, 0.00, 0.00, 0.000, 0.000, 0.000, 17:07:30.659, 1563397650659
33, 11862.36, 0.00, 0.00, 0.00, 0.00, 0.00, 0.00, 0.00, 0.000, 0.000, 0.000, 17:07:30.659, 1563397650659
34, 11862.54, 0.00, 0.00, 0.00, 0.00, 0.00, 0.00, 0.00, 0.000, 0.000, 0.000, 17:07:30.659, 1563397650659
35, 11857.73, 0.00, 0.00, 0.00, 0.00, 0.00, 0.00, 0.00, 0.000, 0.000, 0.000, 17:07:30.659, 1563397650659
36, 11852.93, 0.00, 0.00, 0.00, 0.00, 0.00, 0.00, 0.00, 0.114, -0.070, 1.022, 17:07:30.659, 1563397650659
37, 11851.03, 0.00, 0.00, 0.00, 0.00, 0.00, 0.00, 0.00, 0.000, 0.000, 0.000, 17:07:30.659, 1563397650659
38, 11851.70, 0.00, 0.00, 0.00, 0.00, 0.00, 0.00, 0.00, 0.000, 0.000, 0.000, 17:07:30.659, 1563397650659
39, 11850.80, 0.00, 0.00, 0.00, 0.00, 0.00, 0.00, 0.00, 0.000, 0.000, 0.000, 17:07:30.659, 1563397650659
40, 11833.64, 0.00, 0.00, 0.00, 0.00, 0.00, 0.00, 0.00, 0.000, 0.000, 0.000, 17:07:30.659, 1563397650659
41, 11831.11, 0.00, 0.00, 0.00, 0.00, 0.00, 0.00, 0.00, 0.000, 0.000, 0.000, 17:07:30.659, 1563397650659
42, 11843.72, 0.00, 0.00, 0.00, 0.00, 0.00, 0.00, 0.00, 0.000, 0.000, 0.000, 17:07:30.659, 1563397650659
43, 11851.57, 0.00, 0.00, 0.00, 0.00, 0.00, 0.00, 0.00, 0.000, 0.000, 0.000, 17:07:30.659, 1563397650659
44, 11850.34, 0.00, 0.00, 0.00, 0.00, 0.00, 0.00, 0.00, 0.000, 0.000, 0.000, 17:07:30.659, 1563397650659
45, 11848.23, 0.00, 0.00, 0.00, 0.00, 0.00, 0.00, 0.00, 0.000, 0.000, 0.000, 17:07:30.659, 1563397650659
46, 11840.23, 0.00, 0.00, 0.00, 0.00, 0.00, 0.00, 0.00, 0.114, -0.072, 1.028, 17:07:30.659, 1563397650659
47, 11834.24, 0.00, 0.00, 0.00, 0.00, 0.00, 0.00, 0.00, 0.000, 0.000, 0.000, 17:07:30.659, 1563397650659
48, 11837.48, 0.00, 0.00, 0.00, 0.00, 0.00, 0.00, 0.00, 0.000, 0.000, 0.000, 17:07:30.659, 1563397650659
49, 11838.89, 0.00, 0.00, 0.00, 0.00, 0.00, 0.00, 0.00, 0.000, 0.000, 0.000, 17:07:30.659, 1563397650659
50, 11829.84, 0.00, 0.00, 0.00, 0.00, 0.00, 0.00, 0.00, 0.000, 0.000, 0.000, 17:07:30.660, 1563397650660
51, 11822.33, 0.00, 0.00, 0.00, 0.00, 0.00, 0.00, 0.00, 0.000, 0.000, 0.000, 17:07:30.660, 1563397650660
52, 11819.45, 0.00, 0.00, 0.00, 0.00, 0.00, 0.00, 0.00, 0.000, 0.000, 0.000, 17:07:30.660, 1563397650660
53, 11831.81, 0.00, 0.00, 0.00, 0.00, 0.00, 0.00, 0.00, 0.000, 0.000, 0.000, 17:07:30.660, 1563397650660
54, 11840.93, 0.00, 0.00, 0.00, 0.00, 0.00, 0.00, 0.00, 0.000, 0.000, 0.000, 17:07:30.660, 1563397650660
55, 11839.03, 0.00, 0.00, 0.00, 0.00, 0.00, 0.00, 0.00, 0.000, 0.000, 0.000, 17:07:30.660, 1563397650660
56, 11836.86, 0.00, 0.00, 0.00, 0.00, 0.00, 0.00, 0.00, 0.118, -0.074, 1.024, 17:07:30.660, 1563397650660
57, 11838.02, 0.00, 0.00, 0.00, 0.00, 0.00, 0.00, 0.00, 0.000, 0.000, 0.000, 17:07:30.660, 1563397650660
58, 11832.88, 0.00, 0.00, 0.00, 0.00, 0.00, 0.00, 0.00, 0.000, 0.000, 0.000, 17:07:30.660, 1563397650660
59, 11830.93, 0.00, 0.00, 0.00, 0.00, 0.00, 0.00, 0.00, 0.000, 0.000, 0.000, 17:07:30.660, 1563397650660
60, 11834.82, 0.00, 0.00, 0.00, 0.00, 0.00, 0.00, 0.00, 0.000, 0.000, 0.000, 17:07:30.660, 1563397650660
61, 11843.54, 0.00, 0.00, 0.00, 0.00, 0.00, 0.00, 0.00, 0.000, 0.000, 0.000, 17:07:30.660, 1563397650660
62, 11839.45, 0.00, 0.00, 0.00, 0.00, 0.00, 0.00, 0.00, 0.000, 0.000, 0.000, 17:07:30.660, 1563397650660
63, 11835.38, 0.00, 0.00, 0.00, 0.00, 0.00, 0.00, 0.00, 0.000, 0.000, 0.000, 17:07:30.660, 1563397650660
64, 11831.72, 0.00, 0.00, 0.00, 0.00, 0.00, 0.00, 0.00, 0.000, 0.000, 0.000, 17:07:30.660, 1563397650660
65, 11835.34, 0.00, 0.00, 0.00, 0.00, 0.00, 0.00, 0.00, 0.000, 0.000, 0.000, 17:07:30.660, 1563397650660
66, 11843.38, 0.00, 0.00, 0.00, 0.00, 0.00, 0.00, 0.00, 0.118, -0.070, 1.026, 17:07:30.660, 1563397650660
67, 11842.31, 0.00, 0.00, 0.00, 0.00, 0.00, 0.00, 0.00, 0.000, 0.000, 0.000, 17:07:30.660, 1563397650660
68, 11835.94, 0.00, 0.00, 0.00, 0.00, 0.00, 0.00, 0.00, 0.000, 0.000, 0.000, 17:07:30.660, 1563397650660
69, 11841.89, 0.00, 0.00, 0.00, 0.00, 0.00, 0.00, 0.00, 0.000, 0.000, 0.000, 17:07:30.661, 1563397650661
70, 11848.41, 0.00, 0.00, 0.00, 0.00, 0.00, 0.00, 0.00, 0.000, 0.000, 0.000, 17:07:30.661, 1563397650661
71, 11838.49, 0.00, 0.00, 0.00, 0.00, 0.00, 0.00, 0.00, 0.000, 0.000, 0.000, 17:07:30.661, 1563397650661
72, 11838.76, 0.00, 0.00, 0.00, 0.00, 0.00, 0.00, 0.00, 0.000, 0.000, 0.000, 17:07:30.661, 1563397650661
73, 11846.96, 0.00, 0.00, 0.00, 0.00, 0.00, 0.00, 0.00, 0.000, 0.000, 0.000, 17:07:30.661, 1563397650661
74, 11854.56, 0.00, 0.00, 0.00, 0.00, 0.00, 0.00, 0.00, 0.000, 0.000, 0.000, 17:07:30.661, 1563397650661
75, 11854.22, 0.00, 0.00, 0.00, 0.00, 0.00, 0.00, 0.00, 0.000, 0.000, 0.000, 17:07:30.661, 1563397650661
76, 11854.07, 0.00, 0.00, 0.00, 0.00, 0.00, 0.00, 0.00, 0.120, -0.070, 1.024, 17:07:30.661, 1563397650661
77, 11856.28, 0.00, 0.00, 0.00, 0.00, 0.00, 0.00, 0.00, 0.000, 0.000, 0.000, 17:07:30.661, 1563397650661
78, 11851.61, 0.00, 0.00, 0.00, 0.00, 0.00, 0.00, 0.00, 0.000, 0.000, 0.000, 17:07:30.661, 1563397650661
79, 11852.64, 0.00, 0.00, 0.00, 0.00, 0.00, 0.00, 0.00, 0.000, 0.000, 0.000, 17:07:30.661, 1563397650661
80, 11852.03, 0.00, 0.00, 0.00, 0.00, 0.00, 0.00, 0.00, 0.000, 0.000, 0.000, 17:07:30.661, 1563397650661
81, 11854.56, 0.00, 0.00, 0.00, 0.00, 0.00, 0.00, 0.00, 0.000, 0.000, 0.000, 17:07:30.661, 1563397650661
82, 11854.60, 0.00, 0.00, 0.00, 0.00, 0.00, 0.00, 0.00, 0.000, 0.000, 0.000, 17:07:30.661, 1563397650661
83, 11860.68, 0.00, 0.00, 0.00, 0.00, 0.00, 0.00, 0.00, 0.000, 0.000, 0.000, 17:07:30.661, 1563397650661
84, 11865.07, 0.00, 0.00, 0.00, 0.00, 0.00, 0.00, 0.00, 0.000, 0.000, 0.000, 17:07:30.661, 1563397650661
85, 11860.64, 0.00, 0.00, 0.00, 0.00, 0.00, 0.00, 0.00, 0.000, 0.000, 0.000, 17:07:30.661, 1563397650661
86, 11862.12, 0.00, 0.00, 0.00, 0.00, 0.00, 0.00, 0.00, 0.116, -0.068, 1.020, 17:07:30.661, 1563397650661
87, 11857.82, 0.00, 0.00, 0.00, 0.00, 0.00, 0.00, 0.00, 0.000, 0.000, 0.000, 17:07:30.661, 1563397650661
88, 11858.11, 0.00, 0.00, 0.00, 0.00, 0.00, 0.00, 0.00, 0.000, 0.000, 0.000, 17:07:30.661, 1563397650661
89, 11861.13, 0.00, 0.00, 0.00, 0.00, 0.00, 0.00, 0.00, 0.000, 0.000, 0.000, 17:07:30.661, 1563397650661
90, 11865.18, 0.00, 0.00, 0.00, 0.00, 0.00, 0.00, 0.00, 0.000, 0.000, 0.000, 17:07:31.138, 1563397651138
91, 11864.39, 0.00, 0.00, 0.00, 0.00, 0.00, 0.00, 0.00, 0.000, 0.000, 0.000, 17:07:31.138, 1563397651138
92, 11861.82, 0.00, 0.00, 0.00, 0.00, 0.00, 0.00, 0.00, 0.000, 0.000, 0.000, 17:07:31.138, 1563397651138
93, 11861.13, 0.00, 0.00, 0.00, 0.00, 0.00, 0.00, 0.00, 0.000, 0.000, 0.000, 17:07:31.138, 1563397651138
94, 11862.61, 0.00, 0.00, 0.00, 0.00, 0.00, 0.00, 0.00, 0.000, 0.000, 0.000, 17:07:31.138, 1563397651138
95, 11862.70, 0.00, 0.00, 0.00, 0.00, 0.00, 0.00, 0.00, 0.000, 0.000, 0.000, 17:07:31.138, 1563397651138
96, 11869.56, 0.00, 0.00, 0.00, 0.00, 0.00, 0.00, 0.00, 0.000, 0.000, 0.000, 17:07:31.138, 1563397651138
97, 11870.34, 0.00, 0.00, 0.00, 0.00, 0.00, 0.00, 0.00, 0.116, -0.076, 1.030, 17:07:31.138, 1563397651138
98, 11873.94, 0.00, 0.00, 0.00, 0.00, 0.00, 0.00, 0.00, 0.000, 0.000, 0.000, 17:07:31.138, 1563397651138
99, 11871.30, 0.00, 0.00, 0.00, 0.00, 0.00, 0.00, 0.00, 0.000, 0.000, 0.000, 17:07:31.138, 1563397651138
100, 11870.12, 0.00, 0.00, 0.00, 0.00, 0.00, 0.00, 0.00, 0.000, 0.000, 0.000, 17:07:31.138, 1563397651138
101, 11868.98, 0.00, 0.00, 0.00, 0.00, 0.00, 0.00, 0.00, 0.000, 0.000, 0.000, 17:07:31.138, 1563397651138
102, 11869.31, 0.00, 0.00, 0.00, 0.00, 0.00, 0.00, 0.00, 0.000, 0.000, 0.000, 17:07:31.138, 1563397651138
103, 11869.25, 0.00, 0.00, 0.00, 0.00, 0.00, 0.00, 0.00, 0.000, 0.000, 0.000, 17:07:31.138, 1563397651138
104, 11872.29, 0.00, 0.00, 0.00, 0.00, 0.00, 0.00, 0.00, 0.000, 0.000, 0.000, 17:07:31.139, 1563397651139
105, 11874.77, 0.00, 0.00, 0.00, 0.00, 0.00, 0.00, 0.00, 0.000, 0.000, 0.000, 17:07:31.139, 1563397651139
106, 11878.07, 0.00, 0.00, 0.00, 0.00, 0.00, 0.00, 0.00, 0.000, 0.000, 0.000, 17:07:31.139, 1563397651139
107, 11869.74, 0.00, 0.00, 0.00, 0.00, 0.00, 0.00, 0.00, 0.114, -0.070, 1.030, 17:07:31.139, 1563397651139
108, 11861.15, 0.00, 0.00, 0.00, 0.00, 0.00, 0.00, 0.00, 0.000, 0.000, 0.000, 17:07:31.139, 1563397651139
109, 11870.70, 0.00, 0.00, 0.00, 0.00, 0.00, 0.00, 0.00, 0.000, 0.000, 0.000, 17:07:31.139, 1563397651139
110, 11872.82, 0.00, 0.00, 0.00, 0.00, 0.00, 0.00, 0.00, 0.000, 0.000, 0.000, 17:07:31.139, 1563397651139
111, 11867.08, 0.00, 0.00, 0.00, 0.00, 0.00, 0.00, 0.00, 0.000, 0.000, 0.000, 17:07:31.139, 1563397651139
112, 11871.82, 0.00, 0.00, 0.00, 0.00, 0.00, 0.00, 0.00, 0.000, 0.000, 0.000, 17:07:31.139, 1563397651139
113, 11871.53, 0.00, 0.00, 0.00, 0.00, 0.00, 0.00, 0.00, 0.000, 0.000, 0.000, 17:07:31.139, 1563397651139
114, 11860.46, 0.00, 0.00, 0.00, 0.00, 0.00, 0.00, 0.00, 0.000, 0.000, 0.000, 17:07:31.139, 1563397651139
115, 11851.39, 0.00, 0.00, 0.00, 0.00, 0.00, 0.00, 0.00, 0.000, 0.000, 0.000, 17:07:31.139, 1563397651139
116, 11857.31, 0.00, 0.00, 0.00, 0.00, 0.00, 0.00, 0.00, 0.000, 0.000, 0.000, 17:07:31.139, 1563397651139
117, 11866.56, 0.00, 0.00, 0.00, 0.00, 0.00, 0.00, 0.00, 0.112, -0.068, 1.036, 17:07:31.139, 1563397651139
118, 11864.51, 0.00, 0.00, 0.00, 0.00, 0.00, 0.00, 0.00, 0.000, 0.000, 0.000, 17:07:31.139, 1563397651139
119, 11863.97, 0.00, 0.00, 0.00, 0.00, 0.00, 0.00, 0.00, 0.000, 0.000, 0.000, 17:07:31.139, 1563397651139
120, 11860.62, 0.00, 0.00, 0.00, 0.00, 0.00, 0.00, 0.00, 0.000, 0.000, 0.000, 17:07:31.139, 1563397651139
121, 11856.06, 0.00, 0.00, 0.00, 0.00, 0.00, 0.00, 0.00, 0.000, 0.000, 0.000, 17:07:31.139, 1563397651139
122, 11856.79, 0.00, 0.00, 0.00, 0.00, 0.00, 0.00, 0.00, 0.000, 0.000, 0.000, 17:07:31.139, 1563397651139
123, 11856.95, 0.00, 0.00, 0.00, 0.00, 0.00, 0.00, 0.00, 0.000, 0.000, 0.000, 17:07:31.139, 1563397651139
124, 11856.06, 0.00, 0.00, 0.00, 0.00, 0.00, 0.00, 0.00, 0.000, 0.000, 0.000, 17:07:31.139, 1563397651139
125, 11853.60, 0.00, 0.00, 0.00, 0.00, 0.00, 0.00, 0.00, 0.000, 0.000, 0.000, 17:07:31.139, 1563397651139
126, 11856.26, 0.00, 0.00, 0.00, 0.00, 0.00, 0.00, 0.00, 0.000, 0.000, 0.000, 17:07:31.139, 1563397651139
127, 11858.52, 0.00, 0.00, 0.00, 0.00, 0.00, 0.00, 0.00, 0.114, -0.074, 1.032, 17:07:31.139, 1563397651139
128, 11857.82, 0.00, 0.00, 0.00, 0.00, 0.00, 0.00, 0.00, 0.000, 0.000, 0.000, 17:07:31.139, 1563397651139
129, 11859.68, 0.00, 0.00, 0.00, 0.00, 0.00, 0.00, 0.00, 0.000, 0.000, 0.000, 17:07:31.139, 1563397651139
130, 11854.45, 0.00, 0.00, 0.00, 0.00, 0.00, 0.00, 0.00, 0.000, 0.000, 0.000, 17:07:31.139, 1563397651139
131, 11849.42, 0.00, 0.00, 0.00, 0.00, 0.00, 0.00, 0.00, 0.000, 0.000, 0.000, 17:07:31.139, 1563397651139
132, 11853.26, 0.00, 0.00, 0.00, 0.00, 0.00, 0.00, 0.00, 0.000, 0.000, 0.000, 17:07:31.139, 1563397651139
133, 11858.11, 0.00, 0.00, 0.00, 0.00, 0.00, 0.00, 0.00, 0.000, 0.000, 0.000, 17:07:31.139, 1563397651139
134, 11862.38, 0.00, 0.00, 0.00, 0.00, 0.00, 0.00, 0.00, 0.000, 0.000, 0.000, 17:07:31.139, 1563397651139
135, 11861.76, 0.00, 0.00, 0.00, 0.00, 0.00, 0.00, 0.00, 0.000, 0.000, 0.000, 17:07:31.139, 1563397651139
136, 11862.09, 0.00, 0.00, 0.00, 0.00, 0.00, 0.00, 0.00, 0.000, 0.000, 0.000, 17:07:31.139, 1563397651139
137, 11865.85, 0.00, 0.00, 0.00, 0.00, 0.00, 0.00, 0.00, 0.118, -0.074, 1.030, 17:07:31.139, 1563397651139
138, 11869.07, 0.00, 0.00, 0.00, 0.00, 0.00, 0.00, 0.00, 0.000, 0.000, 0.000, 17:07:31.139, 1563397651139
139, 11857.91, 0.00, 0.00, 0.00, 0.00, 0.00, 0.00, 0.00, 0.000, 0.000, 0.000, 17:07:31.140, 1563397651140
140, 11848.50, 0.00, 0.00, 0.00, 0.00, 0.00, 0.00, 0.00, 0.000, 0.000, 0.000, 17:07:31.140, 1563397651140
141, 11855.23, 0.00, 0.00, 0.00, 0.00, 0.00, 0.00, 0.00, 0.000, 0.000, 0.000, 17:07:31.140, 1563397651140
142, 11856.10, 0.00, 0.00, 0.00, 0.00, 0.00, 0.00, 0.00, 0.000, 0.000, 0.000, 17:07:31.140, 1563397651140
143, 11848.01, 0.00, 0.00, 0.00, 0.00, 0.00, 0.00, 0.00, 0.000, 0.000, 0.000, 17:07:31.140, 1563397651140
144, 11848.23, 0.00, 0.00, 0.00, 0.00, 0.00, 0.00, 0.00, 0.000, 0.000, 0.000, 17:07:31.140, 1563397651140
145, 11848.46, 0.00, 0.00, 0.00, 0.00, 0.00, 0.00, 0.00, 0.000, 0.000, 0.000, 17:07:31.140, 1563397651140
146, 11854.83, 0.00, 0.00, 0.00, 0.00, 0.00, 0.00, 0.00, 0.000, 0.000, 0.000, 17:07:31.140, 1563397651140
147, 11857.18, 0.00, 0.00, 0.00, 0.00, 0.00, 0.00, 0.00, 0.000, 0.000, 0.000, 17:07:31.140, 1563397651140
148, 11859.68, 0.00, 0.00, 0.00, 0.00, 0.00, 0.00, 0.00, 0.126, -0.066, 1.028, 17:07:31.140, 1563397651140
149, 11856.88, 0.00, 0.00, 0.00, 0.00, 0.00, 0.00, 0.00, 0.000, 0.000, 0.000, 17:07:31.140, 1563397651140
150, 11854.81, 0.00, 0.00, 0.00, 0.00, 0.00, 0.00, 0.00, 0.000, 0.000, 0.000, 17:07:31.140, 1563397651140
151, 11854.22, 0.00, 0.00, 0.00, 0.00, 0.00, 0.00, 0.00, 0.000, 0.000, 0.000, 17:07:31.140, 1563397651140
152, 11851.77, 0.00, 0.00, 0.00, 0.00, 0.00, 0.00, 0.00, 0.000, 0.000, 0.000, 17:07:31.140, 1563397651140
153, 11853.91, 0.00, 0.00, 0.00, 0.00, 0.00, 0.00, 0.00, 0.000, 0.000, 0.000, 17:07:31.140, 1563397651140
154, 11851.07, 0.00, 0.00, 0.00, 0.00, 0.00, 0.00, 0.00, 0.000, 0.000, 0.000, 17:07:31.140, 1563397651140
155, 11851.65, 0.00, 0.00, 0.00, 0.00, 0.00, 0.00, 0.00, 0.000, 0.000, 0.000, 17:07:31.140, 1563397651140
156, 11850.76, 0.00, 0.00, 0.00, 0.00, 0.00, 0.00, 0.00, 0.000, 0.000, 0.000, 17:07:31.140, 1563397651140
157, 11848.30, 0.00, 0.00, 0.00, 0.00, 0.00, 0.00, 0.00, 0.000, 0.000, 0.000, 17:07:31.140, 1563397651140
158, 11850.09, 0.00, 0.00, 0.00, 0.00, 0.00, 0.00, 0.00, 0.124, -0.072, 1.024, 17:07:31.140, 1563397651140
159, 11857.13, 0.00, 0.00, 0.00, 0.00, 0.00, 0.00, 0.00, 0.000, 0.000, 0.000, 17:07:31.140, 1563397651140
160, 11859.54, 0.00, 0.00, 0.00, 0.00, 0.00, 0.00, 0.00, 0.000, 0.000, 0.000, 17:07:31.140, 1563397651140
161, 11864.78, 0.00, 0.00, 0.00, 0.00, 0.00, 0.00, 0.00, 0.000, 0.000, 0.000, 17:07:31.140, 1563397651140
162, 11865.16, 0.00, 0.00, 0.00, 0.00, 0.00, 0.00, 0.00, 0.000, 0.000, 0.000, 17:07:31.140, 1563397651140
163, 11862.94, 0.00, 0.00, 0.00, 0.00, 0.00, 0.00, 0.00, 0.000, 0.000, 0.000, 17:07:31.140, 1563397651140
164, 11860.10, 0.00, 0.00, 0.00, 0.00, 0.00, 0.00, 0.00, 0.000, 0.000, 0.000, 17:07:31.140, 1563397651140
165, 11854.98, 0.00, 0.00, 0.00, 0.00, 0.00, 0.00, 0.00, 0.000, 0.000, 0.000, 17:07:31.141, 1563397651141
166, 11855.39, 0.00, 0.00, 0.00, 0.00, 0.00, 0.00, 0.00, 0.000, 0.000, 0.000, 17:07:31.141, 1563397651141
167, 11857.44, 0.00, 0.00, 0.00, 0.00, 0.00, 0.00, 0.00, 0.000, 0.000, 0.000, 17:07:31.141, 1563397651141
168, 11859.54, 0.00, 0.00, 0.00, 0.00, 0.00, 0.00, 0.00, 0.116, -0.072, 1.022, 17:07:31.141, 1563397651141
169, 11859.57, 0.00, 0.00, 0.00, 0.00, 0.00, 0.00, 0.00, 0.000, 0.000, 0.000, 17:07:31.141, 1563397651141
170, 11856.57, 0.00, 0.00, 0.00, 0.00, 0.00, 0.00, 0.00, 0.000, 0.000, 0.000, 17:07:31.141, 1563397651141
171, 11857.73, 0.00, 0.00, 0.00, 0.00, 0.00, 0.00, 0.00, 0.000, 0.000, 0.000, 17:07:31.141, 1563397651141
172, 11855.23, 0.00, 0.00, 0.00, 0.00, 0.00, 0.00, 0.00, 0.000, 0.000, 0.000, 17:07:31.141, 1563397651141
173, 11861.87, 0.00, 0.00, 0.00, 0.00, 0.00, 0.00, 0.00, 0.000, 0.000, 0.000, 17:07:31.141, 1563397651141
174, 11865.45, 0.00, 0.00, 0.00, 0.00, 0.00, 0.00, 0.00, 0.000, 0.000, 0.000, 17:07:31.141, 1563397651141
175, 11862.38, 0.00, 0.00, 0.00, 0.00, 0.00, 0.00, 0.00, 0.000, 0.000, 0.000, 17:07:31.141, 1563397651141
176, 11865.58, 0.00, 0.00, 0.00, 0.00, 0.00, 0.00, 0.00, 0.000, 0.000, 0.000, 17:07:31.141, 1563397651141
177, 11861.20, 0.00, 0.00, 0.00, 0.00, 0.00, 0.00, 0.00, 0.000, 0.000, 0.000, 17:07:31.141, 1563397651141
178, 11856.97, 0.00, 0.00, 0.00, 0.00, 0.00, 0.00, 0.00, 0.118, -0.072, 1.030, 17:07:31.141, 1563397651141
179, 11868.73, 0.00, 0.00, 0.00, 0.00, 0.00, 0.00, 0.00, 0.000, 0.000, 0.000, 17:07:31.141, 1563397651141
180, 11865.42, 0.00, 0.00, 0.00, 0.00, 0.00, 0.00, 0.00, 0.000, 0.000, 0.000, 17:07:31.141, 1563397651141
181, 11866.47, 0.00, 0.00, 0.00, 0.00, 0.00, 0.00, 0.00, 0.000, 0.000, 0.000, 17:07:31.141, 1563397651141
182, 11867.17, 0.00, 0.00, 0.00, 0.00, 0.00, 0.00, 0.00, 0.000, 0.000, 0.000, 17:07:31.141, 1563397651141
183, 11860.57, 0.00, 0.00, 0.00, 0.00, 0.00, 0.00, 0.00, 0.000, 0.000, 0.000, 17:07:31.141, 1563397651141
184, 11858.49, 0.00, 0.00, 0.00, 0.00, 0.00, 0.00, 0.00, 0.000, 0.000, 0.000, 17:07:31.141, 1563397651141
185, 11863.03, 0.00, 0.00, 0.00, 0.00, 0.00, 0.00, 0.00, 0.000, 0.000, 0.000, 17:07:31.141, 1563397651141
186, 11864.95, 0.00, 0.00, 0.00, 0.00, 0.00, 0.00, 0.00, 0.000, 0.000, 0.000, 17:07:31.141, 1563397651141
187, 11865.67, 0.00, 0.00, 0.00, 0.00, 0.00, 0.00, 0.00, 0.000, 0.000, 0.000, 17:07:31.141, 1563397651141
188, 11866.58, 0.00, 0.00, 0.00, 0.00, 0.00, 0.00, 0.00, 0.122, -0.070, 1.028, 17:07:31.141, 1563397651141
189, 11862.38, 0.00, 0.00, 0.00, 0.00, 0.00, 0.00, 0.00, 0.000, 0.000, 0.000, 17:07:31.141, 1563397651141
190, 11863.48, 0.00, 0.00, 0.00, 0.00, 0.00, 0.00, 0.00, 0.000, 0.000, 0.000, 17:07:31.141, 1563397651141
191, 11866.38, 0.00, 0.00, 0.00, 0.00, 0.00, 0.00, 0.00, 0.000, 0.000, 0.000, 17:07:31.141, 1563397651141
192, 11868.02, 0.00, 0.00, 0.00, 0.00, 0.00, 0.00, 0.00, 0.000, 0.000, 0.000, 17:07:31.141, 1563397651141
193, 11861.31, 0.00, 0.00, 0.00, 0.00, 0.00, 0.00, 0.00, 0.000, 0.000, 0.000, 17:07:31.141, 1563397651141
194, 11863.75, 0.00, 0.00, 0.00, 0.00, 0.00, 0.00, 0.00, 0.000, 0.000, 0.000, 17:07:31.141, 1563397651141
195, 11864.82, 0.00, 0.00, 0.00, 0.00, 0.00, 0.00, 0.00, 0.000, 0.000, 0.000, 17:07:31.141, 1563397651141
196, 11860.28, 0.00, 0.00, 0.00, 0.00, 0.00, 0.00, 0.00, 0.000, 0.000, 0.000, 17:07:31.141, 1563397651141
197, 11863.66, 0.00, 0.00, 0.00, 0.00, 0.00, 0.00, 0.00, 0.000, 0.000, 0.000, 17:07:31.141, 1563397651141
198, 11858.29, 0.00, 0.00, 0.00, 0.00, 0.00, 0.00, 0.00, 0.000, 0.000, 0.000, 17:07:31.141, 1563397651141
199, 11857.62, 0.00, 0.00, 0.00, 0.00, 0.00, 0.00, 0.00, 0.122, -0.070, 1.022, 17:07:31.141, 1563397651141
200, 11856.88, 0.00, 0.00, 0.00, 0.00, 0.00, 0.00, 0.00, 0.000, 0.000, 0.000, 17:07:31.141, 1563397651141
201, 11855.52, 0.00, 0.00, 0.00, 0.00, 0.00, 0.00, 0.00, 0.000, 0.000, 0.000, 17:07:31.141, 1563397651141
202, 11855.23, 0.00, 0.00, 0.00, 0.00, 0.00, 0.00, 0.00, 0.000, 0.000, 0.000, 17:07:31.142, 1563397651142
203, 11856.77, 0.00, 0.00, 0.00, 0.00, 0.00, 0.00, 0.00, 0.000, 0.000, 0.000, 17:07:31.142, 1563397651142
204, 11851.45, 0.00, 0.00, 0.00, 0.00, 0.00, 0.00, 0.00, 0.000, 0.000, 0.000, 17:07:31.142, 1563397651142
205, 11847.18, 0.00, 0.00, 0.00, 0.00, 0.00, 0.00, 0.00, 0.000, 0.000, 0.000, 17:07:31.142, 1563397651142
206, 11850.36, 0.00, 0.00, 0.00, 0.00, 0.00, 0.00, 0.00, 0.000, 0.000, 0.000, 17:07:31.142, 1563397651142
207, 11853.69, 0.00, 0.00, 0.00, 0.00, 0.00, 0.00, 0.00, 0.000, 0.000, 0.000, 17:07:31.142, 1563397651142
208, 11854.85, 0.00, 0.00, 0.00, 0.00, 0.00, 0.00, 0.00, 0.000, 0.000, 0.000, 17:07:31.142, 1563397651142
209, 11850.09, 0.00, 0.00, 0.00, 0.00, 0.00, 0.00, 0.00, 0.116, -0.068, 1.028, 17:07:31.142, 1563397651142
210, 11849.58, 0.00, 0.00, 0.00, 0.00, 0.00, 0.00, 0.00, 0.000, 0.000, 0.000, 17:07:31.619, 1563397651619
211, 11851.36, 0.00, 0.00, 0.00, 0.00, 0.00, 0.00, 0.00, 0.000, 0.000, 0.000, 17:07:31.619, 1563397651619
212, 11857.73, 0.00, 0.00, 0.00, 0.00, 0.00, 0.00, 0.00, 0.000, 0.000, 0.000, 17:07:31.619, 1563397651619
213, 11853.93, 0.00, 0.00, 0.00, 0.00, 0.00, 0.00, 0.00, 0.000, 0.000, 0.000, 17:07:31.619, 1563397651619
214, 11852.97, 0.00, 0.00, 0.00, 0.00, 0.00, 0.00, 0.00, 0.000, 0.000, 0.000, 17:07:31.619, 1563397651619
215, 11851.61, 0.00, 0.00, 0.00, 0.00, 0.00, 0.00, 0.00, 0.000, 0.000, 0.000, 17:07:31.619, 1563397651619
216, 11856.57, 0.00, 0.00, 0.00, 0.00, 0.00, 0.00, 0.00, 0.000, 0.000, 0.000, 17:07:31.620, 1563397651620
217, 11859.90, 0.00, 0.00, 0.00, 0.00, 0.00, 0.00, 0.00, 0.000, 0.000, 0.000, 17:07:31.620, 1563397651620
218, 11859.97, 0.00, 0.00, 0.00, 0.00, 0.00, 0.00, 0.00, 0.000, 0.000, 0.000, 17:07:31.620, 1563397651620
219, 11859.59, 0.00, 0.00, 0.00, 0.00, 0.00, 0.00, 0.00, 0.120, -0.068, 1.028, 17:07:31.620, 1563397651620
220, 11851.54, 0.00, 0.00, 0.00, 0.00, 0.00, 0.00, 0.00, 0.000, 0.000, 0.000, 17:07:31.620, 1563397651620
221, 11849.24, 0.00, 0.00, 0.00, 0.00, 0.00, 0.00, 0.00, 0.000, 0.000, 0.000, 17:07:31.620, 1563397651620
222, 11845.69, 0.00, 0.00, 0.00, 0.00, 0.00, 0.00, 0.00, 0.000, 0.000, 0.000, 17:07:31.620, 1563397651620
223, 11842.71, 0.00, 0.00, 0.00, 0.00, 0.00, 0.00, 0.00, 0.000, 0.000, 0.000, 17:07:31.620, 1563397651620
224, 11842.92, 0.00, 0.00, 0.00, 0.00, 0.00, 0.00, 0.00, 0.000, 0.000, 0.000, 17:07:31.620, 1563397651620
225, 11848.86, 0.00, 0.00, 0.00, 0.00, 0.00, 0.00, 0.00, 0.000, 0.000, 0.000, 17:07:31.620, 1563397651620
226, 11853.38, 0.00, 0.00, 0.00, 0.00, 0.00, 0.00, 0.00, 0.000, 0.000, 0.000, 17:07:31.620, 1563397651620
227, 11846.36, 0.00, 0.00, 0.00, 0.00, 0.00, 0.00, 0.00, 0.000, 0.000, 0.000, 17:07:31.620, 1563397651620
228, 11845.02, 0.00, 0.00, 0.00, 0.00, 0.00, 0.00, 0.00, 0.000, 0.000, 0.000, 17:07:31.620, 1563397651620
229, 11852.93, 0.00, 0.00, 0.00, 0.00, 0.00, 0.00, 0.00, 0.118, -0.076, 1.026, 17:07:31.620, 1563397651620
230, 11848.30, 0.00, 0.00, 0.00, 0.00, 0.00, 0.00, 0.00, 0.000, 0.000, 0.000, 17:07:31.620, 1563397651620
231, 11851.48, 0.00, 0.00, 0.00, 0.00, 0.00, 0.00, 0.00, 0.000, 0.000, 0.000, 17:07:31.620, 1563397651620
232, 11850.36, 0.00, 0.00, 0.00, 0.00, 0.00, 0.00, 0.00, 0.000, 0.000, 0.000, 17:07:31.620, 1563397651620
233, 11839.76, 0.00, 0.00, 0.00, 0.00, 0.00, 0.00, 0.00, 0.000, 0.000, 0.000, 17:07:31.620, 1563397651620
234, 11840.81, 0.00, 0.00, 0.00, 0.00, 0.00, 0.00, 0.00, 0.000, 0.000, 0.000, 17:07:31.620, 1563397651620
235, 11847.43, 0.00, 0.00, 0.00, 0.00, 0.00, 0.00, 0.00, 0.000, 0.000, 0.000, 17:07:31.620, 1563397651620
236, 11845.73, 0.00, 0.00, 0.00, 0.00, 0.00, 0.00, 0.00, 0.000, 0.000, 0.000, 17:07:31.620, 1563397651620
237, 11843.56, 0.00, 0.00, 0.00, 0.00, 0.00, 0.00, 0.00, 0.000, 0.000, 0.000, 17:07:31.620, 1563397651620
238, 11838.89, 0.00, 0.00, 0.00, 0.00, 0.00, 0.00, 0.00, 0.000, 0.000, 0.000, 17:07:31.620, 1563397651620
239, 11828.90, 0.00, 0.00, 0.00, 0.00, 0.00, 0.00, 0.00, 0.118, -0.074, 1.022, 17:07:31.620, 1563397651620
240, 11823.83, 0.00, 0.00, 0.00, 0.00, 0.00, 0.00, 0.00, 0.000, 0.000, 0.000, 17:07:31.620, 1563397651620
241, 11827.42, 0.00, 0.00, 0.00, 0.00, 0.00, 0.00, 0.00, 0.000, 0.000, 0.000, 17:07:31.620, 1563397651620
242, 11829.84, 0.00, 0.00, 0.00, 0.00, 0.00, 0.00, 0.00, 0.000, 0.000, 0.000, 17:07:31.620, 1563397651620
243, 11827.34, 0.00, 0.00, 0.00, 0.00, 0.00, 0.00, 0.00, 0.000, 0.000, 0.000, 17:07:31.620, 1563397651620
244, 11826.00, 0.00, 0.00, 0.00, 0.00, 0.00, 0.00, 0.00, 0.000, 0.000, 0.000, 17:07:31.620, 1563397651620
245, 11826.98, 0.00, 0.00, 0.00, 0.00, 0.00, 0.00, 0.00, 0.000, 0.000, 0.000, 17:07:31.620, 1563397651620
246, 11828.12, 0.00, 0.00, 0.00, 0.00, 0.00, 0.00, 0.00, 0.000, 0.000, 0.000, 17:07:31.620, 1563397651620
247, 11824.72, 0.00, 0.00, 0.00, 0.00, 0.00, 0.00, 0.00, 0.000, 0.000, 0.000, 17:07:31.620, 1563397651620
248, 11827.45, 0.00, 0.00, 0.00, 0.00, 0.00, 0.00, 0.00, 0.000, 0.000, 0.000, 17:07:31.620, 1563397651620
249, 11826.08, 0.00, 0.00, 0.00, 0.00, 0.00, 0.00, 0.00, 0.116, -0.074, 1.022, 17:07:31.621, 1563397651621
250, 11825.12, 0.00, 0.00, 0.00, 0.00, 0.00, 0.00, 0.00, 0.000, 0.000, 0.000, 17:07:31.621, 1563397651621
251, 11826.22, 0.00, 0.00, 0.00, 0.00, 0.00, 0.00, 0.00, 0.000, 0.000, 0.000, 17:07:31.621, 1563397651621
252, 11830.31, 0.00, 0.00, 0.00, 0.00, 0.00, 0.00, 0.00, 0.000, 0.000, 0.000, 17:07:31.621, 1563397651621
253, 11837.44, 0.00, 0.00, 0.00, 0.00, 0.00, 0.00, 0.00, 0.000, 0.000, 0.000, 17:07:31.621, 1563397651621
254, 11838.36, 0.00, 0.00, 0.00, 0.00, 0.00, 0.00, 0.00, 0.000, 0.000, 0.000, 17:07:31.621, 1563397651621
255, 11833.71, 0.00, 0.00, 0.00, 0.00, 0.00, 0.00, 0.00, 0.000, 0.000, 0.000, 17:07:31.621, 1563397651621
0, 11839.81, 0.00, 0.00, 0.00, 0.00, 0.00, 0.00, 0.00, 0.000, 0.000, 0.000, 17:07:31.621, 1563397651621
1, 11843.14, 0.00, 0.00, 0.00, 0.00, 0.00, 0.00, 0.00, 0.000, 0.000, 0.000, 17:07:31.621, 1563397651621
2, 11840.75, 0.00, 0.00, 0.00, 0.00, 0.00, 0.00, 0.00, 0.000, 0.000, 0.000, 17:07:31.621, 1563397651621
3, 11841.64, 0.00, 0.00, 0.00, 0.00, 0.00, 0.00, 0.00, 0.000, 0.000, 0.000, 17:07:31.621, 1563397651621
4, 11835.27, 0.00, 0.00, 0.00, 0.00, 0.00, 0.00, 0.00, 0.116, -0.078, 1.018, 17:07:31.621, 1563397651621
5, 11835.56, 0.00, 0.00, 0.00, 0.00, 0.00, 0.00, 0.00, 0.000, 0.000, 0.000, 17:07:31.621, 1563397651621
6, 11842.16, 0.00, 0.00, 0.00, 0.00, 0.00, 0.00, 0.00, 0.000, 0.000, 0.000, 17:07:31.621, 1563397651621
7, 11847.45, 0.00, 0.00, 0.00, 0.00, 0.00, 0.00, 0.00, 0.000, 0.000, 0.000, 17:07:31.621, 1563397651621
8, 11851.70, 0.00, 0.00, 0.00, 0.00, 0.00, 0.00, 0.00, 0.000, 0.000, 0.000, 17:07:31.621, 1563397651621
9, 11842.20, 0.00, 0.00, 0.00, 0.00, 0.00, 0.00, 0.00, 0.000, 0.000, 0.000, 17:07:31.621, 1563397651621
10, 11833.08, 0.00, 0.00, 0.00, 0.00, 0.00, 0.00, 0.00, 0.000, 0.000, 0.000, 17:07:31.621, 1563397651621
11, 11841.89, 0.00, 0.00, 0.00, 0.00, 0.00, 0.00, 0.00, 0.000, 0.000, 0.000, 17:07:31.621, 1563397651621
12, 11847.50, 0.00, 0.00, 0.00, 0.00, 0.00, 0.00, 0.00, 0.000, 0.000, 0.000, 17:07:31.621, 1563397651621
13, 11842.13, 0.00, 0.00, 0.00, 0.00, 0.00, 0.00, 0.00, 0.000, 0.000, 0.000, 17:07:31.621, 1563397651621
14, 11841.53, 0.00, 0.00, 0.00, 0.00, 0.00, 0.00, 0.00, 0.118, -0.078, 1.026, 17:07:31.621, 1563397651621
15, 11838.85, 0.00, 0.00, 0.00, 0.00, 0.00, 0.00, 0.00, 0.000, 0.000, 0.000, 17:07:31.621, 1563397651621
16, 11836.86, 0.00, 0.00, 0.00, 0.00, 0.00, 0.00, 0.00, 0.000, 0.000, 0.000, 17:07:31.621, 1563397651621
17, 11848.95, 0.00, 0.00, 0.00, 0.00, 0.00, 0.00, 0.00, 0.000, 0.000, 0.000, 17:07:31.621, 1563397651621
18, 11849.53, 0.00, 0.00, 0.00, 0.00, 0.00, 0.00, 0.00, 0.000, 0.000, 0.000, 17:07:31.621, 1563397651621
19, 11848.30, 0.00, 0.00, 0.00, 0.00, 0.00, 0.00, 0.00, 0.000, 0.000, 0.000, 17:07:31.621, 1563397651621
20, 11849.15, 0.00, 0.00, 0.00, 0.00, 0.00, 0.00, 0.00, 0.000, 0.000, 0.000, 17:07:31.621, 1563397651621
21, 11849.24, 0.00, 0.00, 0.00, 0.00, 0.00, 0.00, 0.00, 0.000, 0.000, 0.000, 17:07:31.621, 1563397651621
22, 11837.01, 0.00, 0.00, 0.00, 0.00, 0.00, 0.00, 0.00, 0.000, 0.000, 0.000, 17:07:31.621, 1563397651621
23, 11829.77, 0.00, 0.00, 0.00, 0.00, 0.00, 0.00, 0.00, 0.000, 0.000, 0.000, 17:07:31.621, 1563397651621
24, 11834.64, 0.00, 0.00, 0.00, 0.00, 0.00, 0.00, 0.00, 0.122, -0.076, 1.028, 17:07:31.621, 1563397651621
25, 11836.32, 0.00, 0.00, 0.00, 0.00, 0.00, 0.00, 0.00, 0.000, 0.000, 0.000, 17:07:31.621, 1563397651621
26, 11839.70, 0.00, 0.00, 0.00, 0.00, 0.00, 0.00, 0.00, 0.000, 0.000, 0.000, 17:07:31.621, 1563397651621
27, 11844.64, 0.00, 0.00, 0.00, 0.00, 0.00, 0.00, 0.00, 0.000, 0.000, 0.000, 17:07:31.622, 1563397651622
28, 11841.31, 0.00, 0.00, 0.00, 0.00, 0.00, 0.00, 0.00, 0.000, 0.000, 0.000, 17:07:31.622, 1563397651622
29, 11844.10, 0.00, 0.00, 0.00, 0.00, 0.00, 0.00, 0.00, 0.000, 0.000, 0.000, 17:07:31.622, 1563397651622
30, 11841.98, 0.00, 0.00, 0.00, 0.00, 0.00, 0.00, 0.00, 0.000, 0.000, 0.000, 17:07:31.622, 1563397651622
31, 11831.96, 0.00, 0.00, 0.00, 0.00, 0.00, 0.00, 0.00, 0.000, 0.000, 0.000, 17:07:31.622, 1563397651622
32, 11830.76, 0.00, 0.00, 0.00, 0.00, 0.00, 0.00, 0.00, 0.000, 0.000, 0.000, 17:07:31.622, 1563397651622
33, 11829.48, 0.00, 0.00, 0.00, 0.00, 0.00, 0.00, 0.00, 0.000, 0.000, 0.000, 17:07:31.622, 1563397651622
34, 11829.75, 0.00, 0.00, 0.00, 0.00, 0.00, 0.00, 0.00, 0.130, -0.074, 1.026, 17:07:31.622, 1563397651622
35, 11823.51, 0.00, 0.00, 0.00, 0.00, 0.00, 0.00, 0.00, 0.000, 0.000, 0.000, 17:07:31.622, 1563397651622
36, 11808.96, 0.00, 0.00, 0.00, 0.00, 0.00, 0.00, 0.00, 0.000, 0.000, 0.000, 17:07:31.622, 1563397651622
37, 11817.37, 0.00, 0.00, 0.00, 0.00, 0.00, 0.00, 0.00, 0.000, 0.000, 0.000, 17:07:31.622, 1563397651622
38, 11825.10, 0.00, 0.00, 0.00, 0.00, 0.00, 0.00, 0.00, 0.000, 0.000, 0.000, 17:07:31.622, 1563397651622
39, 11823.80, 0.00, 0.00, 0.00, 0.00, 0.00, 0.00, 0.00, 0.000, 0.000, 0.000, 17:07:31.622, 1563397651622
40, 11822.49, 0.00, 0.00, 0.00, 0.00, 0.00, 0.00, 0.00, 0.000, 0.000, 0.000, 17:07:31.622, 1563397651622
41, 11815.18, 0.00, 0.00, 0.00, 0.00, 0.00, 0.00, 0.00, 0.000, 0.000, 0.000, 17:07:31.622, 1563397651622
42, 11817.46, 0.00, 0.00, 0.00, 0.00, 0.00, 0.00, 0.00, 0.000, 0.000, 0.000, 17:07:31.622, 1563397651622
43, 11823.65, 0.00, 0.00, 0.00, 0.00, 0.00, 0.00, 0.00, 0.000, 0.000, 0.000, 17:07:31.622, 1563397651622
44, 11812.29, 0.00, 0.00, 0.00, 0.00, 0.00, 0.00, 0.00, 0.128, -0.070, 1.026, 17:07:31.622, 1563397651622
45, 11824.21, 0.00, 0.00, 0.00, 0.00, 0.00, 0.00, 0.00, 0.000, 0.000, 0.000, 17:07:31.622, 1563397651622
46, 11834.87, 0.00, 0.00, 0.00, 0.00, 0.00, 0.00, 0.00, 0.000, 0.000, 0.000, 17:07:31.622, 1563397651622
47, 11823.98, 0.00, 0.00, 0.00, 0.00, 0.00, 0.00, 0.00, 0.000, 0.000, 0.000, 17:07:31.622, 1563397651622
48, 11821.79, 0.00, 0.00, 0.00, 0.00, 0.00, 0.00, 0.00, 0.000, 0.000, 0.000, 17:07:31.622, 1563397651622
49, 11823.54, 0.00, 0.00, 0.00, 0.00, 0.00, 0.00, 0.00, 0.000, 0.000, 0.000, 17:07:31.622, 1563397651622
50, 11821.52, 0.00, 0.00, 0.00, 0.00, 0.00, 0.00, 0.00, 0.000, 0.000, 0.000, 17:07:31.622, 1563397651622
51, 11820.12, 0.00, 0.00, 0.00, 0.00, 0.00, 0.00, 0.00, 0.000, 0.000, 0.000, 17:07:31.622, 1563397651622
52, 11819.07, 0.00, 0.00, 0.00, 0.00, 0.00, 0.00, 0.00, 0.000, 0.000, 0.000, 17:07:31.622, 1563397651622
53, 11813.86, 0.00, 0.00, 0.00, 0.00, 0.00, 0.00, 0.00, 0.000, 0.000, 0.000, 17:07:31.622, 1563397651622
54, 11808.67, 0.00, 0.00, 0.00, 0.00, 0.00, 0.00, 0.00, 0.000, 0.000, 0.000, 17:07:31.622, 1563397651622
55, 11809.23, 0.00, 0.00, 0.00, 0.00, 0.00, 0.00, 0.00, 0.122, -0.068, 1.030, 17:07:31.622, 1563397651622
56, 11814.37, 0.00, 0.00, 0.00, 0.00, 0.00, 0.00, 0.00, 0.000, 0.000, 0.000, 17:07:31.622, 1563397651622
57, 11807.04, 0.00, 0.00, 0.00, 0.00, 0.00, 0.00, 0.00, 0.000, 0.000, 0.000, 17:07:31.622, 1563397651622
58, 11812.92, 0.00, 0.00, 0.00, 0.00, 0.00, 0.00, 0.00, 0.000, 0.000, 0.000, 17:07:31.622, 1563397651622
59, 11822.98, 0.00, 0.00, 0.00, 0.00, 0.00, 0.00, 0.00, 0.000, 0.000, 0.000, 17:07:31.622, 1563397651622
60, 11822.37, 0.00, 0.00, 0.00, 0.00, 0.00, 0.00, 0.00, 0.000, 0.000, 0.000, 17:07:31.622, 1563397651622
61, 11820.59, 0.00, 0.00, 0.00, 0.00, 0.00, 0.00, 0.00, 0.000, 0.000, 0.000, 17:07:31.623, 1563397651623
62, 11817.19, 0.00, 0.00, 0.00, 0.00, 0.00, 0.00, 0.00, 0.000, 0.000, 0.000, 17:07:31.623, 1563397651623
63, 11813.77, 0.00, 0.00, 0.00, 0.00, 0.00, 0.00, 0.00, 0.000, 0.000, 0.000, 17:07:31.623, 1563397651623
64, 11816.20, 0.00, 0.00, 0.00, 0.00, 0.00, 0.00, 0.00, 0.000, 0.000, 0.000, 17:07:31.623, 1563397651623
65, 11818.64, 0.00, 0.00, 0.00, 0.00, 0.00, 0.00, 0.00, 0.118, -0.066, 1.030, 17:07:31.623, 1563397651623
66, 11819.51, 0.00, 0.00, 0.00, 0.00, 0.00, 0.00, 0.00, 0.000, 0.000, 0.000, 17:07:31.623, 1563397651623
67, 11818.64, 0.00, 0.00, 0.00, 0.00, 0.00, 0.00, 0.00, 0.000, 0.000, 0.000, 17:07:31.623, 1563397651623
68, 11811.78, 0.00, 0.00, 0.00, 0.00, 0.00, 0.00, 0.00, 0.000, 0.000, 0.000, 17:07:31.623, 1563397651623
69, 11816.52, 0.00, 0.00, 0.00, 0.00, 0.00, 0.00, 0.00, 0.000, 0.000, 0.000, 17:07:31.623, 1563397651623
70, 11820.25, 0.00, 0.00, 0.00, 0.00, 0.00, 0.00, 0.00, 0.000, 0.000, 0.000, 17:07:31.623, 1563397651623
71, 11806.57, 0.00, 0.00, 0.00, 0.00, 0.00, 0.00, 0.00, 0.000, 0.000, 0.000, 17:07:31.623, 1563397651623
72, 11805.50, 0.00, 0.00, 0.00, 0.00, 0.00, 0.00, 0.00, 0.000, 0.000, 0.000, 17:07:31.623, 1563397651623
73, 11816.94, 0.00, 0.00, 0.00, 0.00, 0.00, 0.00, 0.00, 0.000, 0.000, 0.000, 17:07:31.623, 1563397651623
74, 11815.13, 0.00, 0.00, 0.00, 0.00, 0.00, 0.00, 0.00, 0.000, 0.000, 0.000, 17:07:32.100, 1563397652100
75, 11821.48, 0.00, 0.00, 0.00, 0.00, 0.00, 0.00, 0.00, 0.120, -0.068, 1.028, 17:07:32.100, 1563397652100
76, 11814.44, 0.00, 0.00, 0.00, 0.00, 0.00, 0.00, 0.00, 0.000, 0.000, 0.000, 17:07:32.100, 1563397652100
77, 11793.25, 0.00, 0.00, 0.00, 0.00, 0.00, 0.00, 0.00, 0.000, 0.000, 0.000, 17:07:32.100, 1563397652100
78, 11797.50, 0.00, 0.00, 0.00, 0.00, 0.00, 0.00, 0.00, 0.000, 0.000, 0.000, 17:07:32.100, 1563397652100
79, 11801.77, 0.00, 0.00, 0.00, 0.00, 0.00, 0.00, 0.00, 0.000, 0.000, 0.000, 17:07:32.100, 1563397652100
80, 11794.66, 0.00, 0.00, 0.00, 0.00, 0.00, 0.00, 0.00, 0.000, 0.000, 0.000, 17:07:32.100, 1563397652100
81, 11795.66, 0.00, 0.00, 0.00, 0.00, 0.00, 0.00, 0.00, 0.000, 0.000, 0.000, 17:07:32.100, 1563397652100
82, 11799.89, 0.00, 0.00, 0.00, 0.00, 0.00, 0.00, 0.00, 0.000, 0.000, 0.000, 17:07:32.100, 1563397652100
83, 11803.46, 0.00, 0.00, 0.00, 0.00, 0.00, 0.00, 0.00, 0.000, 0.000, 0.000, 17:07:32.100, 1563397652100
84, 11808.85, 0.00, 0.00, 0.00, 0.00, 0.00, 0.00, 0.00, 0.000, 0.000, 0.000, 17:07:32.100, 1563397652100
85, 11815.29, 0.00, 0.00, 0.00, 0.00, 0.00, 0.00, 0.00, 0.120, -0.070, 1.028, 17:07:32.100, 1563397652100
86, 11818.28, 0.00, 0.00, 0.00, 0.00, 0.00, 0.00, 0.00, 0.000, 0.000, 0.000, 17:07:32.100, 1563397652100
87, 11819.04, 0.00, 0.00, 0.00, 0.00, 0.00, 0.00, 0.00, 0.000, 0.000, 0.000, 17:07:32.100, 1563397652100
88, 11810.06, 0.00, 0.00, 0.00, 0.00, 0.00, 0.00, 0.00, 0.000, 0.000, 0.000, 17:07:32.100, 1563397652100
89, 11812.70, 0.00, 0.00, 0.00, 0.00, 0.00, 0.00, 0.00, 0.000, 0.000, 0.000, 17:07:32.100, 1563397652100
90, 11810.97, 0.00, 0.00, 0.00, 0.00, 0.00, 0.00, 0.00, 0.000, 0.000, 0.000, 17:07:32.100, 1563397652100
91, 11806.97, 0.00, 0.00, 0.00, 0.00, 0.00, 0.00, 0.00, 0.000, 0.000, 0.000, 17:07:32.100, 1563397652100
92, 11806.93, 0.00, 0.00, 0.00, 0.00, 0.00, 0.00, 0.00, 0.000, 0.000, 0.000, 17:07:32.100, 1563397652100
93, 11810.30, 0.00, 0.00, 0.00, 0.00, 0.00, 0.00, 0.00, 0.000, 0.000, 0.000, 17:07:32.100, 1563397652100
94, 11812.14, 0.00, 0.00, 0.00, 0.00, 0.00, 0.00, 0.00, 0.000, 0.000, 0.000, 17:07:32.100, 1563397652100
95, 11816.45, 0.00, 0.00, 0.00, 0.00, 0.00, 0.00, 0.00, 0.114, -0.070, 1.028, 17:07:32.100, 1563397652100
96, 11814.77, 0.00, 0.00, 0.00, 0.00, 0.00, 0.00, 0.00, 0.000, 0.000, 0.000, 17:07:32.100, 1563397652100
97, 11808.74, 0.00, 0.00, 0.00, 0.00, 0.00, 0.00, 0.00, 0.000, 0.000, 0.000, 17:07:32.100, 1563397652100
98, 11805.12, 0.00, 0.00, 0.00, 0.00, 0.00, 0.00, 0.00, 0.000, 0.000, 0.000, 17:07:32.100, 1563397652100
99, 11796.11, 0.00, 0.00, 0.00, 0.00, 0.00, 0.00, 0.00, 0.000, 0.000, 0.000, 17:07:32.100, 1563397652100
100, 11802.88, 0.00, 0.00, 0.00, 0.00, 0.00, 0.00, 0.00, 0.000, 0.000, 0.000, 17:07:32.100, 1563397652100
101, 11806.82, 0.00, 0.00, 0.00, 0.00, 0.00, 0.00, 0.00, 0.000, 0.000, 0.000, 17:07:32.100, 1563397652100
102, 11809.30, 0.00, 0.00, 0.00, 0.00, 0.00, 0.00, 0.00, 0.000, 0.000, 0.000, 17:07:32.100, 1563397652100
103, 11809.68, 0.00, 0.00, 0.00, 0.00, 0.00, 0.00, 0.00, 0.000, 0.000, 0.000, 17:07:32.101, 1563397652101
104, 11815.82, 0.00, 0.00, 0.00, 0.00, 0.00, 0.00, 0.00, 0.000, 0.000, 0.000, 17:07:32.101, 1563397652101
105, 11820.47, 0.00, 0.00, 0.00, 0.00, 0.00, 0.00, 0.00, 0.118, -0.068, 1.028, 17:07:32.101, 1563397652101
106, 11817.39, 0.00, 0.00, 0.00, 0.00, 0.00, 0.00, 0.00, 0.000, 0.000, 0.000, 17:07:32.101, 1563397652101
107, 11811.06, 0.00, 0.00, 0.00, 0.00, 0.00, 0.00, 0.00, 0.000, 0.000, 0.000, 17:07:32.101, 1563397652101
108, 11808.07, 0.00, 0.00, 0.00, 0.00, 0.00, 0.00, 0.00, 0.000, 0.000, 0.000, 17:07:32.101, 1563397652101
109, 11809.45, 0.00, 0.00, 0.00, 0.00, 0.00, 0.00, 0.00, 0.000, 0.000, 0.000, 17:07:32.101, 1563397652101
110, 11804.49, 0.00, 0.00, 0.00, 0.00, 0.00, 0.00, 0.00, 0.000, 0.000, 0.000, 17:07:32.101, 1563397652101
111, 11803.29, 0.00, 0.00, 0.00, 0.00, 0.00, 0.00, 0.00, 0.000, 0.000, 0.000, 17:07:32.101, 1563397652101
112, 11809.52, 0.00, 0.00, 0.00, 0.00, 0.00, 0.00, 0.00, 0.000, 0.000, 0.000, 17:07:32.101, 1563397652101
113, 11815.80, 0.00, 0.00, 0.00, 0.00, 0.00, 0.00, 0.00, 0.000, 0.000, 0.000, 17:07:32.101, 1563397652101
114, 11803.31, 0.00, 0.00, 0.00, 0.00, 0.00, 0.00, 0.00, 0.000, 0.000, 0.000, 17:07:32.101, 1563397652101
115, 11809.28, 0.00, 0.00, 0.00, 0.00, 0.00, 0.00, 0.00, 0.000, 0.000, 0.000, 17:07:32.101, 1563397652101
116, 11803.06, 0.00, 0.00, 0.00, 0.00, 0.00, 0.00, 0.00, 0.112, -0.068, 1.028, 17:07:32.101, 1563397652101
117, 11797.61, 0.00, 0.00, 0.00, 0.00, 0.00, 0.00, 0.00, 0.000, 0.000, 0.000, 17:07:32.101, 1563397652101
118, 11798.55, 0.00, 0.00, 0.00, 0.00, 0.00, 0.00, 0.00, 0.000, 0.000, 0.000, 17:07:32.101, 1563397652101
119, 11800.56, 0.00, 0.00, 0.00, 0.00, 0.00, 0.00, 0.00, 0.000, 0.000, 0.000, 17:07:32.101, 1563397652101
120, 11814.53, 0.00, 0.00, 0.00, 0.00, 0.00, 0.00, 0.00, 0.000, 0.000, 0.000, 17:07:32.101, 1563397652101
121, 11814.48, 0.00, 0.00, 0.00, 0.00, 0.00, 0.00, 0.00, 0.000, 0.000, 0.000, 17:07:32.101, 1563397652101
122, 11807.40, 0.00, 0.00, 0.00, 0.00, 0.00, 0.00, 0.00, 0.000, 0.000, 0.000, 17:07:32.101, 1563397652101
123, 11799.80, 0.00, 0.00, 0.00, 0.00, 0.00, 0.00, 0.00, 0.000, 0.000, 0.000, 17:07:32.101, 1563397652101
124, 11793.81, 0.00, 0.00, 0.00, 0.00, 0.00, 0.00, 0.00, 0.000, 0.000, 0.000, 17:07:32.101, 1563397652101
125, 11796.67, 0.00, 0.00, 0.00, 0.00, 0.00, 0.00, 0.00, 0.000, 0.000, 0.000, 17:07:32.101, 1563397652101
126, 11799.96, 0.00, 0.00, 0.00, 0.00, 0.00, 0.00, 0.00, 0.114, -0.068, 1.032, 17:07:32.101, 1563397652101
127, 11798.46, 0.00, 0.00, 0.00, 0.00, 0.00, 0.00, 0.00, 0.000, 0.000, 0.000, 17:07:32.101, 1563397652101
128, 11796.54, 0.00, 0.00, 0.00, 0.00, 0.00, 0.00, 0.00, 0.000, 0.000, 0.000, 17:07:32.101, 1563397652101
129, 11801.14, 0.00, 0.00, 0.00, 0.00, 0.00, 0.00, 0.00, 0.000, 0.000, 0.000, 17:07:32.101, 1563397652101
130, 11799.24, 0.00, 0.00, 0.00, 0.00, 0.00, 0.00, 0.00, 0.000, 0.000, 0.000, 17:07:32.101, 1563397652101
131, 11801.83, 0.00, 0.00, 0.00, 0.00, 0.00, 0.00, 0.00, 0.000, 0.000, 0.000, 17:07:32.101, 1563397652101
132, 11808.29, 0.00, 0.00, 0.00, 0.00, 0.00, 0.00, 0.00, 0.000, 0.000, 0.000, 17:07:32.101, 1563397652101
133, 11803.38, 0.00, 0.00, 0.00, 0.00, 0.00, 0.00, 0.00, 0.000, 0.000, 0.000, 17:07:32.101, 1563397652101
134, 11800.33, 0.00, 0.00, 0.00, 0.00, 0.00, 0.00, 0.00, 0.000, 0.000, 0.000, 17:07:32.101, 1563397652101
135, 11801.41, 0.00, 0.00, 0.00, 0.00, 0.00, 0.00, 0.00, 0.000, 0.000, 0.000, 17:07:32.101, 1563397652101
136, 11800.11, 0.00, 0.00, 0.00, 0.00, 0.00, 0.00, 0.00, 0.112, -0.066, 1.028, 17:07:32.101, 1563397652101
137, 11796.85, 0.00, 0.00, 0.00, 0.00, 0.00, 0.00, 0.00, 0.000, 0.000, 0.000, 17:07:32.102, 1563397652102
138, 11804.74, 0.00, 0.00, 0.00, 0.00, 0.00, 0.00, 0.00, 0.000, 0.000, 0.000, 17:07:32.102, 1563397652102
139, 11803.26, 0.00, 0.00, 0.00, 0.00, 0.00, 0.00, 0.00, 0.000, 0.000, 0.000, 17:07:32.102, 1563397652102
140, 11798.88, 0.00, 0.00, 0.00, 0.00, 0.00, 0.00, 0.00, 0.000, 0.000, 0.000, 17:07:32.102, 1563397652102
141, 11805.21, 0.00, 0.00, 0.00, 0.00, 0.00, 0.00, 0.00, 0.000, 0.000, 0.000, 17:07:32.102, 1563397652102
142, 11792.00, 0.00, 0.00, 0.00, 0.00, 0.00, 0.00, 0.00, 0.000, 0.000, 0.000, 17:07:32.102, 1563397652102
143, 11788.47, 0.00, 0.00, 0.00, 0.00, 0.00, 0.00, 0.00, 0.000, 0.000, 0.000, 17:07:32.102, 1563397652102
144, 11794.03, 0.00, 0.00, 0.00, 0.00, 0.00, 0.00, 0.00, 0.000, 0.000, 0.000, 17:07:32.102, 1563397652102
145, 11794.99, 0.00, 0.00, 0.00, 0.00, 0.00, 0.00, 0.00, 0.000, 0.000, 0.000, 17:07:32.102, 1563397652102
146, 11800.47, 0.00, 0.00, 0.00, 0.00, 0.00, 0.00, 0.00, 0.110, -0.072, 1.026, 17:07:32.102, 1563397652102
147, 11801.32, 0.00, 0.00, 0.00, 0.00, 0.00, 0.00, 0.00, 0.000, 0.000, 0.000, 17:07:32.102, 1563397652102
148, 11801.72, 0.00, 0.00, 0.00, 0.00, 0.00, 0.00, 0.00, 0.000, 0.000, 0.000, 17:07:32.102, 1563397652102
149, 11798.88, 0.00, 0.00, 0.00, 0.00, 0.00, 0.00, 0.00, 0.000, 0.000, 0.000, 17:07:32.102, 1563397652102
150, 11796.31, 0.00, 0.00, 0.00, 0.00, 0.00, 0.00, 0.00, 0.000, 0.000, 0.000, 17:07:32.102, 1563397652102
151, 11797.27, 0.00, 0.00, 0.00, 0.00, 0.00, 0.00, 0.00, 0.000, 0.000, 0.000, 17:07:32.102, 1563397652102
152, 11793.74, 0.00, 0.00, 0.00, 0.00, 0.00, 0.00, 0.00, 0.000, 0.000, 0.000, 17:07:32.102, 1563397652102
153, 11790.83, 0.00, 0.00, 0.00, 0.00, 0.00, 0.00, 0.00, 0.000, 0.000, 0.000, 17:07:32.102, 1563397652102
154, 11790.05, 0.00, 0.00, 0.00, 0.00, 0.00, 0.00, 0.00, 0.000, 0.000, 0.000, 17:07:32.102, 1563397652102
155, 11783.24, 0.00, 0.00, 0.00, 0.00, 0.00, 0.00, 0.00, 0.000, 0.000, 0.000, 17:07:32.102, 1563397652102
156, 11784.24, 0.00, 0.00, 0.00, 0.00, 0.00, 0.00, 0.00, 0.118, -0.074, 1.026, 17:07:32.102, 1563397652102
157, 11780.87, 0.00, 0.00, 0.00, 0.00, 0.00, 0.00, 0.00, 0.000, 0.000, 0.000, 17:07:32.102, 1563397652102
158, 11792.24, 0.00, 0.00, 0.00, 0.00, 0.00, 0.00, 0.00, 0.000, 0.000, 0.000, 17:07:32.102, 1563397652102
159, 11790.63, 0.00, 0.00, 0.00, 0.00, 0.00, 0.00, 0.00, 0.000, 0.000, 0.000, 17:07:32.102, 1563397652102
160, 11784.64, 0.00, 0.00, 0.00, 0.00, 0.00, 0.00, 0.00, 0.000, 0.000, 0.000, 17:07:32.102, 1563397652102
161, 11783.53, 0.00, 0.00, 0.00, 0.00, 0.00, 0.00, 0.00, 0.000, 0.000, 0.000, 17:07:32.102, 1563397652102
162, 11783.86, 0.00, 0.00, 0.00, 0.00, 0.00, 0.00, 0.00, 0.000, 0.000, 0.000, 17:07:32.103, 1563397652103
163, 11788.82, 0.00, 0.00, 0.00, 0.00, 0.00, 0.00, 0.00, 0.000, 0.000, 0.000, 17:07:32.103, 1563397652103
164, 11791.64, 0.00, 0.00, 0.00, 0.00, 0.00, 0.00, 0.00, 0.000, 0.000, 0.000, 17:07:32.103, 1563397652103
165, 11790.14, 0.00, 0.00, 0.00, 0.00, 0.00, 0.00, 0.00, 0.000, 0.000, 0.000, 17:07:32.103, 1563397652103
166, 11783.91, 0.00, 0.00, 0.00, 0.00, 0.00, 0.00, 0.00, 0.000, 0.000, 0.000, 17:07:32.103, 1563397652103
167, 11800.11, 0.00, 0.00, 0.00, 0.00, 0.00, 0.00, 0.00, 0.114, -0.072, 1.032, 17:07:32.103, 1563397652103
168, 11785.47, 0.00, 0.00, 0.00, 0.00, 0.00, 0.00, 0.00, 0.000, 0.000, 0.000, 17:07:32.103, 1563397652103
169, 11772.80, 0.00, 0.00, 0.00, 0.00, 0.00, 0.00, 0.00, 0.000, 0.000, 0.000, 17:07:32.103, 1563397652103
170, 11777.94, 0.00, 0.00, 0.00, 0.00, 0.00, 0.00, 0.00, 0.000, 0.000, 0.000, 17:07:32.103, 1563397652103
171, 11777.89, 0.00, 0.00, 0.00, 0.00, 0.00, 0.00, 0.00, 0.000, 0.000, 0.000, 17:07:32.103, 1563397652103
172, 11773.20, 0.00, 0.00, 0.00, 0.00, 0.00, 0.00, 0.00, 0.000, 0.000, 0.000, 17:07:32.103, 1563397652103
173, 11777.87, 0.00, 0.00, 0.00, 0.00, 0.00, 0.00, 0.00, 0.000, 0.000, 0.000, 17:07:32.103, 1563397652103
174, 11775.21, 0.00, 0.00, 0.00, 0.00, 0.00, 0.00, 0.00, 0.000, 0.000, 0.000, 17:07:32.103, 1563397652103
175, 11773.36, 0.00, 0.00, 0.00, 0.00, 0.00, 0.00, 0.00, 0.000, 0.000, 0.000, 17:07:32.103, 1563397652103
176, 11776.40, 0.00, 0.00, 0.00, 0.00, 0.00, 0.00, 0.00, 0.000, 0.000, 0.000, 17:07:32.103, 1563397652103
177, 11777.49, 0.00, 0.00, 0.00, 0.00, 0.00, 0.00, 0.00, 0.114, -0.066, 1.040, 17:07:32.103, 1563397652103
178, 11783.66, 0.00, 0.00, 0.00, 0.00, 0.00, 0.00, 0.00, 0.000, 0.000, 0.000, 17:07:32.103, 1563397652103
179, 11779.12, 0.00, 0.00, 0.00, 0.00, 0.00, 0.00, 0.00, 0.000, 0.000, 0.000, 17:07:32.103, 1563397652103
180, 11777.65, 0.00, 0.00, 0.00, 0.00, 0.00, 0.00, 0.00, 0.000, 0.000, 0.000, 17:07:32.103, 1563397652103
181, 11785.85, 0.00, 0.00, 0.00, 0.00, 0.00, 0.00, 0.00, 0.000, 0.000, 0.000, 17:07:32.103, 1563397652103
182, 11789.45, 0.00, 0.00, 0.00, 0.00, 0.00, 0.00, 0.00, 0.000, 0.000, 0.000, 17:07:32.103, 1563397652103
183, 11791.30, 0.00, 0.00, 0.00, 0.00, 0.00, 0.00, 0.00, 0.000, 0.000, 0.000, 17:07:32.103, 1563397652103
184, 11783.15, 0.00, 0.00, 0.00, 0.00, 0.00, 0.00, 0.00, 0.000, 0.000, 0.000, 17:07:32.103, 1563397652103
185, 11782.68, 0.00, 0.00, 0.00, 0.00, 0.00, 0.00, 0.00, 0.000, 0.000, 0.000, 17:07:32.103, 1563397652103
186, 11782.21, 0.00, 0.00, 0.00, 0.00, 0.00, 0.00, 0.00, 0.000, 0.000, 0.000, 17:07:32.103, 1563397652103
187, 11781.60, 0.00, 0.00, 0.00, 0.00, 0.00, 0.00, 0.00, 0.114, -0.066, 1.036, 17:07:32.103, 1563397652103
188, 11777.76, 0.00, 0.00, 0.00, 0.00, 0.00, 0.00, 0.00, 0.000, 0.000, 0.000, 17:07:32.103, 1563397652103
189, 11776.87, 0.00, 0.00, 0.00, 0.00, 0.00, 0.00, 0.00, 0.000, 0.000, 0.000, 17:07:32.103, 1563397652103
190, 11781.27, 0.00, 0.00, 0.00, 0.00, 0.00, 0.00, 0.00, 0.000, 0.000, 0.000, 17:07:32.103, 1563397652103
191, 11783.82, 0.00, 0.00, 0.00, 0.00, 0.00, 0.00, 0.00, 0.000, 0.000, 0.000, 17:07:32.103, 1563397652103
192, 11790.39, 0.00, 0.00, 0.00, 0.00, 0.00, 0.00, 0.00, 0.000, 0.000, 0.000, 17:07:32.103, 1563397652103
193, 11785.76, 0.00, 0.00, 0.00, 0.00, 0.00, 0.00, 0.00, 0.000, 0.000, 0.000, 17:07:32.104, 1563397652104
194, 11780.89, 0.00, 0.00, 0.00, 0.00, 0.00, 0.00, 0.00, 0.000, 0.000, 0.000, 17:07:32.581, 1563397652581
195, 11789.05, 0.00, 0.00, 0.00, 0.00, 0.00, 0.00, 0.00, 0.000, 0.000, 0.000, 17:07:32.581, 1563397652581
196, 11789.34, 0.00, 0.00, 0.00, 0.00, 0.00, 0.00, 0.00, 0.000, 0.000, 0.000, 17:07:32.581, 1563397652581
197, 11787.64, 0.00, 0.00, 0.00, 0.00, 0.00, 0.00, 0.00, 0.118, -0.066, 1.030, 17:07:32.581, 1563397652581
198, 11792.13, 0.00, 0.00, 0.00, 0.00, 0.00, 0.00, 0.00, 0.000, 0.000, 0.000, 17:07:32.581, 1563397652581
199, 11783.97, 0.00, 0.00, 0.00, 0.00, 0.00, 0.00, 0.00, 0.000, 0.000, 0.000, 17:07:32.581, 1563397652581
200, 11773.36, 0.00, 0.00, 0.00, 0.00, 0.00, 0.00, 0.00, 0.000, 0.000, 0.000, 17:07:32.581, 1563397652581
201, 11773.27, 0.00, 0.00, 0.00, 0.00, 0.00, 0.00, 0.00, 0.000, 0.000, 0.000, 17:07:32.581, 1563397652581
202, 11777.71, 0.00, 0.00, 0.00, 0.00, 0.00, 0.00, 0.00, 0.000, 0.000, 0.000, 17:07:32.581, 1563397652581
203, 11778.39, 0.00, 0.00, 0.00, 0.00, 0.00, 0.00, 0.00, 0.000, 0.000, 0.000, 17:07:32.581, 1563397652581
204, 11776.58, 0.00, 0.00, 0.00, 0.00, 0.00, 0.00, 0.00, 0.000, 0.000, 0.000, 17:07:32.581, 1563397652581
205, 11769.11, 0.00, 0.00, 0.00, 0.00, 0.00, 0.00, 0.00, 0.000, 0.000, 0.000, 17:07:32.581, 1563397652581
206, 11771.34, 0.00, 0.00, 0.00, 0.00, 0.00, 0.00, 0.00, 0.000, 0.000, 0.000, 17:07:32.581, 1563397652581
207, 11769.29, 0.00, 0.00, 0.00, 0.00, 0.00, 0.00, 0.00, 0.122, -0.062, 1.026, 17:07:32.581, 1563397652581
208, 11766.32, 0.00, 0.00, 0.00, 0.00, 0.00, 0.00, 0.00, 0.000, 0.000, 0.000, 17:07:32.581, 1563397652581
209, 11769.06, 0.00, 0.00, 0.00, 0.00, 0.00, 0.00, 0.00, 0.000, 0.000, 0.000, 17:07:32.581, 1563397652581
210, 11773.47, 0.00, 0.00, 0.00, 0.00, 0.00, 0.00, 0.00, 0.000, 0.000, 0.000, 17:07:32.581, 1563397652581
211, 11773.24, 0.00, 0.00, 0.00, 0.00, 0.00, 0.00, 0.00, 0.000, 0.000, 0.000, 17:07:32.581, 1563397652581
212, 11772.53, 0.00, 0.00, 0.00, 0.00, 0.00, 0.00, 0.00, 0.000, 0.000, 0.000, 17:07:32.581, 1563397652581
213, 11772.98, 0.00, 0.00, 0.00, 0.00, 0.00, 0.00, 0.00, 0.000, 0.000, 0.000, 17:07:32.581, 1563397652581
214, 11772.80, 0.00, 0.00, 0.00, 0.00, 0.00, 0.00, 0.00, 0.000, 0.000, 0.000, 17:07:32.581, 1563397652581
215, 11772.33, 0.00, 0.00, 0.00, 0.00, 0.00, 0.00, 0.00, 0.000, 0.000, 0.000, 17:07:32.581, 1563397652581
216, 11775.21, 0.00, 0.00, 0.00, 0.00, 0.00, 0.00, 0.00, 0.000, 0.000, 0.000, 17:07:32.581, 1563397652581
217, 11778.03, 0.00, 0.00, 0.00, 0.00, 0.00, 0.00, 0.00, 0.000, 0.000, 0.000, 17:07:32.581, 1563397652581
218, 11781.18, 0.00, 0.00, 0.00, 0.00, 0.00, 0.00, 0.00, 0.122, -0.068, 1.030, 17:07:32.581, 1563397652581
219, 11767.70, 0.00, 0.00, 0.00, 0.00, 0.00, 0.00, 0.00, 0.000, 0.000, 0.000, 17:07:32.581, 1563397652581
220, 11765.35, 0.00, 0.00, 0.00, 0.00, 0.00, 0.00, 0.00, 0.000, 0.000, 0.000, 17:07:32.582, 1563397652582
221, 11766.70, 0.00, 0.00, 0.00, 0.00, 0.00, 0.00, 0.00, 0.000, 0.000, 0.000, 17:07:32.582, 1563397652582
222, 11765.02, 0.00, 0.00, 0.00, 0.00, 0.00, 0.00, 0.00, 0.000, 0.000, 0.000, 17:07:32.582, 1563397652582
223, 11761.69, 0.00, 0.00, 0.00, 0.00, 0.00, 0.00, 0.00, 0.000, 0.000, 0.000, 17:07:32.582, 1563397652582
224, 11766.65, 0.00, 0.00, 0.00, 0.00, 0.00, 0.00, 0.00, 0.000, 0.000, 0.000, 17:07:32.582, 1563397652582
225, 11757.75, 0.00, 0.00, 0.00, 0.00, 0.00, 0.00, 0.00, 0.000, 0.000, 0.000, 17:07:32.582, 1563397652582
226, 11759.70, 0.00, 0.00, 0.00, 0.00, 0.00, 0.00, 0.00, 0.000, 0.000, 0.000, 17:07:32.582, 1563397652582
227, 11764.50, 0.00, 0.00, 0.00, 0.00, 0.00, 0.00, 0.00, 0.000, 0.000, 0.000, 17:07:32.582, 1563397652582
228, 11762.23, 0.00, 0.00, 0.00, 0.00, 0.00, 0.00, 0.00, 0.126, -0.070, 1.022, 17:07:32.582, 1563397652582
229, 11764.91, 0.00, 0.00, 0.00, 0.00, 0.00, 0.00, 0.00, 0.000, 0.000, 0.000, 17:07:32.582, 1563397652582
230, 11762.11, 0.00, 0.00, 0.00, 0.00, 0.00, 0.00, 0.00, 0.000, 0.000, 0.000, 17:07:32.582, 1563397652582
231, 11764.80, 0.00, 0.00, 0.00, 0.00, 0.00, 0.00, 0.00, 0.000, 0.000, 0.000, 17:07:32.582, 1563397652582
232, 11768.42, 0.00, 0.00, 0.00, 0.00, 0.00, 0.00, 0.00, 0.000, 0.000, 0.000, 17:07:32.582, 1563397652582
233, 11772.22, 0.00, 0.00, 0.00, 0.00, 0.00, 0.00, 0.00, 0.000, 0.000, 0.000, 17:07:32.582, 1563397652582
234, 11767.88, 0.00, 0.00, 0.00, 0.00, 0.00, 0.00, 0.00, 0.000, 0.000, 0.000, 17:07:32.582, 1563397652582
235, 11766.90, 0.00, 0.00, 0.00, 0.00, 0.00, 0.00, 0.00, 0.000, 0.000, 0.000, 17:07:32.582, 1563397652582
236, 11762.29, 0.00, 0.00, 0.00, 0.00, 0.00, 0.00, 0.00, 0.000, 0.000, 0.000, 17:07:32.582, 1563397652582
237, 11755.34, 0.00, 0.00, 0.00, 0.00, 0.00, 0.00, 0.00, 0.000, 0.000, 0.000, 17:07:32.582, 1563397652582
238, 11755.18, 0.00, 0.00, 0.00, 0.00, 0.00, 0.00, 0.00, 0.128, -0.070, 1.026, 17:07:32.582, 1563397652582
239, 11751.59, 0.00, 0.00, 0.00, 0.00, 0.00, 0.00, 0.00, 0.000, 0.000, 0.000, 17:07:32.582, 1563397652582
240, 11752.39, 0.00, 0.00, 0.00, 0.00, 0.00, 0.00, 0.00, 0.000, 0.000, 0.000, 17:07:32.582, 1563397652582
241, 11752.41, 0.00, 0.00, 0.00, 0.00, 0.00, 0.00, 0.00, 0.000, 0.000, 0.000, 17:07:32.582, 1563397652582
242, 11752.28, 0.00, 0.00, 0.00, 0.00, 0.00, 0.00, 0.00, 0.000, 0.000, 0.000, 17:07:32.582, 1563397652582
243, 11752.39, 0.00, 0.00, 0.00, 0.00, 0.00, 0.00, 0.00, 0.000, 0.000, 0.000, 17:07:32.582, 1563397652582
244, 11749.84, 0.00, 0.00, 0.00, 0.00, 0.00, 0.00, 0.00, 0.000, 0.000, 0.000, 17:07:32.582, 1563397652582
245, 11753.53, 0.00, 0.00, 0.00, 0.00, 0.00, 0.00, 0.00, 0.000, 0.000, 0.000, 17:07:32.582, 1563397652582
246, 11756.62, 0.00, 0.00, 0.00, 0.00, 0.00, 0.00, 0.00, 0.000, 0.000, 0.000, 17:07:32.582, 1563397652582
247, 11755.21, 0.00, 0.00, 0.00, 0.00, 0.00, 0.00, 0.00, 0.000, 0.000, 0.000, 17:07:32.583, 1563397652583
248, 11762.27, 0.00, 0.00, 0.00, 0.00, 0.00, 0.00, 0.00, 0.124, -0.066, 1.026, 17:07:32.583, 1563397652583
249, 11767.79, 0.00, 0.00, 0.00, 0.00, 0.00, 0.00, 0.00, 0.000, 0.000, 0.000, 17:07:32.583, 1563397652583
250, 11763.86, 0.00, 0.00, 0.00, 0.00, 0.00, 0.00, 0.00, 0.000, 0.000, 0.000, 17:07:32.583, 1563397652583
251, 11763.25, 0.00, 0.00, 0.00, 0.00, 0.00, 0.00, 0.00, 0.000, 0.000, 0.000, 17:07:32.583, 1563397652583
252, 11761.51, 0.00, 0.00, 0.00, 0.00, 0.00, 0.00, 0.00, 0.000, 0.000, 0.000, 17:07:32.583, 1563397652583
253, 11762.14, 0.00, 0.00, 0.00, 0.00, 0.00, 0.00, 0.00, 0.000, 0.000, 0.000, 17:07:32.583, 1563397652583
254, 11765.91, 0.00, 0.00, 0.00, 0.00, 0.00, 0.00, 0.00, 0.000, 0.000, 0.000, 17:07:32.583, 1563397652583
255, 11766.45, 0.00, 0.00, 0.00, 0.00, 0.00, 0.00, 0.00, 0.000, 0.000, 0.000, 17:07:32.583, 1563397652583
0, 11761.17, 0.00, 0.00, 0.00, 0.00, 0.00, 0.00, 0.00, 0.000, 0.000, 0.000, 17:07:32.583, 1563397652583
1, 11757.33, 0.00, 0.00, 0.00, 0.00, 0.00, 0.00, 0.00, 0.000, 0.000, 0.000, 17:07:32.583, 1563397652583
2, 11761.58, 0.00, 0.00, 0.00, 0.00, 0.00, 0.00, 0.00, 0.122, -0.066, 1.028, 17:07:32.583, 1563397652583
3, 11769.13, 0.00, 0.00, 0.00, 0.00, 0.00, 0.00, 0.00, 0.000, 0.000, 0.000, 17:07:32.583, 1563397652583
4, 11768.06, 0.00, 0.00, 0.00, 0.00, 0.00, 0.00, 0.00, 0.000, 0.000, 0.000, 17:07:32.583, 1563397652583
5, 11760.44, 0.00, 0.00, 0.00, 0.00, 0.00, 0.00, 0.00, 0.000, 0.000, 0.000, 17:07:32.583, 1563397652583
6, 11754.47, 0.00, 0.00, 0.00, 0.00, 0.00, 0.00, 0.00, 0.000, 0.000, 0.000, 17:07:32.583, 1563397652583
7, 11747.67, 0.00, 0.00, 0.00, 0.00, 0.00, 0.00, 0.00, 0.000, 0.000, 0.000, 17:07:32.583, 1563397652583
8, 11749.10, 0.00, 0.00, 0.00, 0.00, 0.00, 0.00, 0.00, 0.000, 0.000, 0.000, 17:07:32.583, 1563397652583
9, 11754.25, 0.00, 0.00, 0.00, 0.00, 0.00, 0.00, 0.00, 0.000, 0.000, 0.000, 17:07:32.583, 1563397652583
10, 11757.24, 0.00, 0.00, 0.00, 0.00, 0.00, 0.00, 0.00, 0.000, 0.000, 0.000, 17:07:32.583, 1563397652583
11, 11760.48, 0.00, 0.00, 0.00, 0.00, 0.00, 0.00, 0.00, 0.000, 0.000, 0.000, 17:07:32.583, 1563397652583
12, 11756.30, 0.00, 0.00, 0.00, 0.00, 0.00, 0.00, 0.00, 0.120, -0.070, 1.028, 17:07:32.583, 1563397652583
13, 11747.21, 0.00, 0.00, 0.00, 0.00, 0.00, 0.00, 0.00, 0.000, 0.000, 0.000, 17:07:32.583, 1563397652583
14, 11747.76, 0.00, 0.00, 0.00, 0.00, 0.00, 0.00, 0.00, 0.000, 0.000, 0.000, 17:07:32.583, 1563397652583
15, 11748.12, 0.00, 0.00, 0.00, 0.00, 0.00, 0.00, 0.00, 0.000, 0.000, 0.000, 17:07:32.583, 1563397652583
16, 11748.86, 0.00, 0.00, 0.00, 0.00, 0.00, 0.00, 0.00, 0.000, 0.000, 0.000, 17:07:32.583, 1563397652583
17, 11747.18, 0.00, 0.00, 0.00, 0.00, 0.00, 0.00, 0.00, 0.000, 0.000, 0.000, 17:07:32.583, 1563397652583
18, 11741.93, 0.00, 0.00, 0.00, 0.00, 0.00, 0.00, 0.00, 0.000, 0.000, 0.000, 17:07:32.583, 1563397652583
19, 11742.89, 0.00, 0.00, 0.00, 0.00, 0.00, 0.00, 0.00, 0.000, 0.000, 0.000, 17:07:32.583, 1563397652583
20, 11750.89, 0.00, 0.00, 0.00, 0.00, 0.00, 0.00, 0.00, 0.000, 0.000, 0.000, 17:07:32.583, 1563397652583
21, 11751.99, 0.00, 0.00, 0.00, 0.00, 0.00, 0.00, 0.00, 0.000, 0.000, 0.000, 17:07:32.583, 1563397652583
22, 11748.88, 0.00, 0.00, 0.00, 0.00, 0.00, 0.00, 0.00, 0.000, 0.000, 0.000, 17:07:32.583, 1563397652583
23, 11748.17, 0.00, 0.00, 0.00, 0.00, 0.00, 0.00, 0.00, 0.116, -0.070, 1.034, 17:07:32.583, 1563397652583
24, 11752.73, 0.00, 0.00, 0.00, 0.00, 0.00, 0.00, 0.00, 0.000, 0.000, 0.000, 17:07:32.583, 1563397652583
25, 11750.74, 0.00, 0.00, 0.00, 0.00, 0.00, 0.00, 0.00, 0.000, 0.000, 0.000, 17:07:32.583, 1563397652583
26, 11757.40, 0.00, 0.00, 0.00, 0.00, 0.00, 0.00, 0.00, 0.000, 0.000, 0.000, 17:07:32.584, 1563397652584
27, 11754.42, 0.00, 0.00, 0.00, 0.00, 0.00, 0.00, 0.00, 0.000, 0.000, 0.000, 17:07:32.584, 1563397652584
28, 11744.97, 0.00, 0.00, 0.00, 0.00, 0.00, 0.00, 0.00, 0.000, 0.000, 0.000, 17:07:32.584, 1563397652584
29, 11741.55, 0.00, 0.00, 0.00, 0.00, 0.00, 0.00, 0.00, 0.000, 0.000, 0.000, 17:07:32.584, 1563397652584
30, 11735.40, 0.00, 0.00, 0.00, 0.00, 0.00, 0.00, 0.00, 0.000, 0.000, 0.000, 17:07:32.584, 1563397652584
31, 11743.76, 0.00, 0.00, 0.00, 0.00, 0.00, 0.00, 0.00, 0.000, 0.000, 0.000, 17:07:32.584, 1563397652584
32, 11754.65, 0.00, 0.00, 0.00, 0.00, 0.00, 0.00, 0.00, 0.000, 0.000, 0.000, 17:07:32.584, 1563397652584
33, 11752.35, 0.00, 0.00, 0.00, 0.00, 0.00, 0.00, 0.00, 0.110, -0.064, 1.030, 17:07:32.584, 1563397652584
34, 11752.37, 0.00, 0.00, 0.00, 0.00, 0.00, 0.00, 0.00, 0.000, 0.000, 0.000, 17:07:32.584, 1563397652584
35, 11750.47, 0.00, 0.00, 0.00, 0.00, 0.00, 0.00, 0.00, 0.000, 0.000, 0.000, 17:07:32.584, 1563397652584
36, 11753.58, 0.00, 0.00, 0.00, 0.00, 0.00, 0.00, 0.00, 0.000, 0.000, 0.000, 17:07:32.584, 1563397652584
37, 11751.34, 0.00, 0.00, 0.00, 0.00, 0.00, 0.00, 0.00, 0.000, 0.000, 0.000, 17:07:32.584, 1563397652584
38, 11745.95, 0.00, 0.00, 0.00, 0.00, 0.00, 0.00, 0.00, 0.000, 0.000, 0.000, 17:07:32.584, 1563397652584
39, 11743.94, 0.00, 0.00, 0.00, 0.00, 0.00, 0.00, 0.00, 0.000, 0.000, 0.000, 17:07:32.584, 1563397652584
40, 11746.06, 0.00, 0.00, 0.00, 0.00, 0.00, 0.00, 0.00, 0.000, 0.000, 0.000, 17:07:32.584, 1563397652584
41, 11752.68, 0.00, 0.00, 0.00, 0.00, 0.00, 0.00, 0.00, 0.000, 0.000, 0.000, 17:07:32.584, 1563397652584
42, 11742.69, 0.00, 0.00, 0.00, 0.00, 0.00, 0.00, 0.00, 0.000, 0.000, 0.000, 17:07:32.584, 1563397652584
43, 11738.55, 0.00, 0.00, 0.00, 0.00, 0.00, 0.00, 0.00, 0.112, -0.064, 1.030, 17:07:32.584, 1563397652584
44, 11748.57, 0.00, 0.00, 0.00, 0.00, 0.00, 0.00, 0.00, 0.000, 0.000, 0.000, 17:07:32.584, 1563397652584
45, 11748.32, 0.00, 0.00, 0.00, 0.00, 0.00, 0.00, 0.00, 0.000, 0.000, 0.000, 17:07:32.584, 1563397652584
46, 11750.89, 0.00, 0.00, 0.00, 0.00, 0.00, 0.00, 0.00, 0.000, 0.000, 0.000, 17:07:32.584, 1563397652584
47, 11750.67, 0.00, 0.00, 0.00, 0.00, 0.00, 0.00, 0.00, 0.000, 0.000, 0.000, 17:07:32.584, 1563397652584
48, 11750.56, 0.00, 0.00, 0.00, 0.00, 0.00, 0.00, 0.00, 0.000, 0.000, 0.000, 17:07:32.584, 1563397652584
49, 11754.96, 0.00, 0.00, 0.00, 0.00, 0.00, 0.00, 0.00, 0.000, 0.000, 0.000, 17:07:32.584, 1563397652584
50, 11756.93, 0.00, 0.00, 0.00, 0.00, 0.00, 0.00, 0.00, 0.000, 0.000, 0.000, 17:07:32.584, 1563397652584
51, 11756.15, 0.00, 0.00, 0.00, 0.00, 0.00, 0.00, 0.00, 0.000, 0.000, 0.000, 17:07:32.584, 1563397652584
52, 11756.10, 0.00, 0.00, 0.00, 0.00, 0.00, 0.00, 0.00, 0.000, 0.000, 0.000, 17:07:32.584, 1563397652584
53, 11761.46, 0.00, 0.00, 0.00, 0.00, 0.00, 0.00, 0.00, 0.116, -0.064, 1.024, 17:07:32.584, 1563397652584
54, 11765.73, 0.00, 0.00, 0.00, 0.00, 0.00, 0.00, 0.00, 0.000, 0.000, 0.000, 17:07:32.584, 1563397652584
55, 11769.42, 0.00, 0.00, 0.00, 0.00, 0.00, 0.00, 0.00, 0.000, 0.000, 0.000, 17:07:32.584, 1563397652584
56, 11771.50, 0.00, 0.00, 0.00, 0.00, 0.00, 0.00, 0.00, 0.000, 0.000, 0.000, 17:07:32.584, 1563397652584
57, 11761.62, 0.00, 0.00, 0.00, 0.00, 0.00, 0.00, 0.00, 0.000, 0.000, 0.000, 17:07:32.584, 1563397652584
58, 11748.41, 0.00, 0.00, 0.00, 0.00, 0.00, 0.00, 0.00, 0.000, 0.000, 0.000, 17:07:32.584, 1563397652584
59, 11747.58, 0.00, 0.00, 0.00, 0.00, 0.00, 0.00, 0.00, 0.000, 0.000, 0.000, 17:07:33.061, 1563397653061
60, 11759.45, 0.00, 0.00, 0.00, 0.00, 0.00, 0.00, 0.00, 0.000, 0.000, 0.000, 17:07:33.062, 1563397653062
61, 11770.12, 0.00, 0.00, 0.00, 0.00, 0.00, 0.00, 0.00, 0.000, 0.000, 0.000, 17:07:33.062, 1563397653062
62, 11767.77, 0.00, 0.00, 0.00, 0.00, 0.00, 0.00, 0.00, 0.000, 0.000, 0.000, 17:07:33.062, 1563397653062
63, 11757.89, 0.00, 0.00, 0.00, 0.00, 0.00, 0.00, 0.00, 0.122, -0.066, 1.026, 17:07:33.062, 1563397653062
64, 11747.27, 0.00, 0.00, 0.00, 0.00, 0.00, 0.00, 0.00, 0.000, 0.000, 0.000, 17:07:33.062, 1563397653062
65, 11754.96, 0.00, 0.00, 0.00, 0.00, 0.00, 0.00, 0.00, 0.000, 0.000, 0.000, 17:07:33.062, 1563397653062
66, 11758.60, 0.00, 0.00, 0.00, 0.00, 0.00, 0.00, 0.00, 0.000, 0.000, 0.000, 17:07:33.062, 1563397653062
67, 11763.45, 0.00, 0.00, 0.00, 0.00, 0.00, 0.00, 0.00, 0.000, 0.000, 0.000, 17:07:33.062, 1563397653062
68, 11761.76, 0.00, 0.00, 0.00, 0.00, 0.00, 0.00, 0.00, 0.000, 0.000, 0.000, 17:07:33.062, 1563397653062
69, 11760.24, 0.00, 0.00, 0.00, 0.00, 0.00, 0.00, 0.00, 0.000, 0.000, 0.000, 17:07:33.062, 1563397653062
70, 11750.45, 0.00, 0.00, 0.00, 0.00, 0.00, 0.00, 0.00, 0.000, 0.000, 0.000, 17:07:33.062, 1563397653062
71, 11748.21, 0.00, 0.00, 0.00, 0.00, 0.00, 0.00, 0.00, 0.000, 0.000, 0.000, 17:07:33.062, 1563397653062
72, 11754.87, 0.00, 0.00, 0.00, 0.00, 0.00, 0.00, 0.00, 0.000, 0.000, 0.000, 17:07:33.062, 1563397653062
73, 11762.16, 0.00, 0.00, 0.00, 0.00, 0.00, 0.00, 0.00, 0.000, 0.000, 0.000, 17:07:33.062, 1563397653062
74, 11765.42, 0.00, 0.00, 0.00, 0.00, 0.00, 0.00, 0.00, 0.124, -0.068, 1.032, 17:07:33.062, 1563397653062
75, 11762.78, 0.00, 0.00, 0.00, 0.00, 0.00, 0.00, 0.00, 0.000, 0.000, 0.000, 17:07:33.062, 1563397653062
76, 11752.17, 0.00, 0.00, 0.00, 0.00, 0.00, 0.00, 0.00, 0.000, 0.000, 0.000, 17:07:33.062, 1563397653062
77, 11752.61, 0.00, 0.00, 0.00, 0.00, 0.00, 0.00, 0.00, 0.000, 0.000, 0.000, 17:07:33.062, 1563397653062
78, 11759.14, 0.00, 0.00, 0.00, 0.00, 0.00, 0.00, 0.00, 0.000, 0.000, 0.000, 17:07:33.062, 1563397653062
79, 11752.95, 0.00, 0.00, 0.00, 0.00, 0.00, 0.00, 0.00, 0.000, 0.000, 0.000, 17:07:33.062, 1563397653062
80, 11755.30, 0.00, 0.00, 0.00, 0.00, 0.00, 0.00, 0.00, 0.000, 0.000, 0.000, 17:07:33.062, 1563397653062
81, 11746.87, 0.00, 0.00, 0.00, 0.00, 0.00, 0.00, 0.00, 0.000, 0.000, 0.000, 17:07:33.062, 1563397653062
82, 11746.65, 0.00, 0.00, 0.00, 0.00, 0.00, 0.00, 0.00, 0.000, 0.000, 0.000, 17:07:33.062, 1563397653062
83, 11759.57, 0.00, 0.00, 0.00, 0.00, 0.00, 0.00, 0.00, 0.000, 0.000, 0.000, 17:07:33.062, 1563397653062
84, 11758.43, 0.00, 0.00, 0.00, 0.00, 0.00, 0.00, 0.00, 0.118, -0.066, 1.030, 17:07:33.062, 1563397653062
85, 11757.46, 0.00, 0.00, 0.00, 0.00, 0.00, 0.00, 0.00, 0.000, 0.000, 0.000, 17:07:33.062, 1563397653062
86, 11751.23, 0.00, 0.00, 0.00, 0.00, 0.00, 0.00, 0.00, 0.000, 0.000, 0.000, 17:07:33.062, 1563397653062
87, 11748.12, 0.00, 0.00, 0.00, 0.00, 0.00, 0.00, 0.00, 0.000, 0.000, 0.000, 17:07:33.062, 1563397653062
88, 11750.49, 0.00, 0.00, 0.00, 0.00, 0.00, 0.00, 0.00, 0.000, 0.000, 0.000, 17:07:33.062, 1563397653062
89, 11753.31, 0.00, 0.00, 0.00, 0.00, 0.00, 0.00, 0.00, 0.000, 0.000, 0.000, 17:07:33.062, 1563397653062
90, 11746.74, 0.00, 0.00, 0.00, 0.00, 0.00, 0.00, 0.00, 0.000, 0.000, 0.000, 17:07:33.062, 1563397653062
91, 11742.89, 0.00, 0.00, 0.00, 0.00, 0.00, 0.00, 0.00, 0.000, 0.000, 0.000, 17:07:33.062, 1563397653062
92, 11743.34, 0.00, 0.00, 0.00, 0.00, 0.00, 0.00, 0.00, 0.000, 0.000, 0.000, 17:07:33.063, 1563397653063
93, 11753.93, 0.00, 0.00, 0.00, 0.00, 0.00, 0.00, 0.00, 0.000, 0.000, 0.000, 17:07:33.063, 1563397653063
94, 11752.95, 0.00, 0.00, 0.00, 0.00, 0.00, 0.00, 0.00, 0.122, -0.064, 1.030, 17:07:33.063, 1563397653063
95, 11751.03, 0.00, 0.00, 0.00, 0.00, 0.00, 0.00, 0.00, 0.000, 0.000, 0.000, 17:07:33.063, 1563397653063
96, 11758.31, 0.00, 0.00, 0.00, 0.00, 0.00, 0.00, 0.00, 0.000, 0.000, 0.000, 17:07:33.063, 1563397653063
97, 11764.75, 0.00, 0.00, 0.00, 0.00, 0.00, 0.00, 0.00, 0.000, 0.000, 0.000, 17:07:33.063, 1563397653063
98, 11762.25, 0.00, 0.00, 0.00, 0.00, 0.00, 0.00, 0.00, 0.000, 0.000, 0.000, 17:07:33.063, 1563397653063
99, 11758.38, 0.00, 0.00, 0.00, 0.00, 0.00, 0.00, 0.00, 0.000, 0.000, 0.000, 17:07:33.063, 1563397653063
100, 11750.07, 0.00, 0.00, 0.00, 0.00, 0.00, 0.00, 0.00, 0.000, 0.000, 0.000, 17:07:33.063, 1563397653063
101, 11753.04, 0.00, 0.00, 0.00, 0.00, 0.00, 0.00, 0.00, 0.000, 0.000, 0.000, 17:07:33.063, 1563397653063
102, 11757.64, 0.00, 0.00, 0.00, 0.00, 0.00, 0.00, 0.00, 0.000, 0.000, 0.000, 17:07:33.063, 1563397653063
103, 11760.55, 0.00, 0.00, 0.00, 0.00, 0.00, 0.00, 0.00, 0.000, 0.000, 0.000, 17:07:33.063, 1563397653063
104, 11758.60, 0.00, 0.00, 0.00, 0.00, 0.00, 0.00, 0.00, 0.120, -0.062, 1.028, 17:07:33.063, 1563397653063
105, 11756.48, 0.00, 0.00, 0.00, 0.00, 0.00, 0.00, 0.00, 0.000, 0.000, 0.000, 17:07:33.063, 1563397653063
106, 11764.35, 0.00, 0.00, 0.00, 0.00, 0.00, 0.00, 0.00, 0.000, 0.000, 0.000, 17:07:33.063, 1563397653063
107, 11761.00, 0.00, 0.00, 0.00, 0.00, 0.00, 0.00, 0.00, 0.000, 0.000, 0.000, 17:07:33.063, 1563397653063
108, 11756.70, 0.00, 0.00, 0.00, 0.00, 0.00, 0.00, 0.00, 0.000, 0.000, 0.000, 17:07:33.063, 1563397653063
109, 11755.72, 0.00, 0.00, 0.00, 0.00, 0.00, 0.00, 0.00, 0.000, 0.000, 0.000, 17:07:33.063, 1563397653063
