%OpenBCI Raw EEG Data
%Number of channels = 8
%Sample Rate = 250.0 Hz
%First Column = SampleIndex
%Last Column = Timestamp 
%Other Columns = EEG data in microvolts followed by Accel Data (in G) interleaved with Aux Data
0, 0.00, 0.00, 0.00, 0.00, 0.00, 0.00, 0.00, 0.00, 0.102, 0.022, 1.030, 17:22:23.570, 1563398543570
1, -18835.75, 0.00, 0.00, 0.00, 0.00, 0.00, 0.00, 0.00, 0.000, 0.000, 0.000, 17:22:24.059, 1563398544059
2, -18824.19, 0.00, 0.00, 0.00, 0.00, 0.00, 0.00, 0.00, 0.000, 0.000, 0.000, 17:22:24.059, 1563398544059
3, -18809.86, 0.00, 0.00, 0.00, 0.00, 0.00, 0.00, 0.00, 0.000, 0.000, 0.000, 17:22:24.059, 1563398544059
4, -18815.92, 0.00, 0.00, 0.00, 0.00, 0.00, 0.00, 0.00, 0.000, 0.000, 0.000, 17:22:24.059, 1563398544059
5, -18833.40, 0.00, 0.00, 0.00, 0.00, 0.00, 0.00, 0.00, 0.000, 0.000, 0.000, 17:22:24.059, 1563398544059
6, -18837.09, 0.00, 0.00, 0.00, 0.00, 0.00, 0.00, 0.00, 0.000, 0.000, 0.000, 17:22:24.059, 1563398544059
7, -18812.97, 0.00, 0.00, 0.00, 0.00, 0.00, 0.00, 0.00, 0.000, 0.000, 0.000, 17:22:24.059, 1563398544059
8, -18802.38, 0.00, 0.00, 0.00, 0.00, 0.00, 0.00, 0.00, 0.102, 0.024, 1.022, 17:22:24.059, 1563398544059
9, -18828.64, 0.00, 0.00, 0.00, 0.00, 0.00, 0.00, 0.00, 0.000, 0.000, 0.000, 17:22:24.059, 1563398544059
10, -18856.54, 0.00, 0.00, 0.00, 0.00, 0.00, 0.00, 0.00, 0.000, 0.000, 0.000, 17:22:24.059, 1563398544059
11, -18817.75, 0.00, 0.00, 0.00, 0.00, 0.00, 0.00, 0.00, 0.000, 0.000, 0.000, 17:22:24.059, 1563398544059
12, -18804.70, 0.00, 0.00, 0.00, 0.00, 0.00, 0.00, 0.00, 0.000, 0.000, 0.000, 17:22:24.059, 1563398544059
13, -18841.54, 0.00, 0.00, 0.00, 0.00, 0.00, 0.00, 0.00, 0.000, 0.000, 0.000, 17:22:24.059, 1563398544059
14, -18846.43, 0.00, 0.00, 0.00, 0.00, 0.00, 0.00, 0.00, 0.000, 0.000, 0.000, 17:22:24.059, 1563398544059
15, -18834.41, 0.00, 0.00, 0.00, 0.00, 0.00, 0.00, 0.00, 0.000, 0.000, 0.000, 17:22:24.059, 1563398544059
16, -18808.03, 0.00, 0.00, 0.00, 0.00, 0.00, 0.00, 0.00, 0.000, 0.000, 0.000, 17:22:24.059, 1563398544059
17, -18827.70, 0.00, 0.00, 0.00, 0.00, 0.00, 0.00, 0.00, 0.000, 0.000, 0.000, 17:22:24.059, 1563398544059
18, -18852.47, 0.00, 0.00, 0.00, 0.00, 0.00, 0.00, 0.00, 0.100, 0.026, 1.022, 17:22:24.059, 1563398544059
19, -18853.63, 0.00, 0.00, 0.00, 0.00, 0.00, 0.00, 0.00, 0.000, 0.000, 0.000, 17:22:24.059, 1563398544059
20, -18814.60, 0.00, 0.00, 0.00, 0.00, 0.00, 0.00, 0.00, 0.000, 0.000, 0.000, 17:22:24.060, 1563398544060
21, -18814.65, 0.00, 0.00, 0.00, 0.00, 0.00, 0.00, 0.00, 0.000, 0.000, 0.000, 17:22:24.060, 1563398544060
22, -18851.66, 0.00, 0.00, 0.00, 0.00, 0.00, 0.00, 0.00, 0.000, 0.000, 0.000, 17:22:24.060, 1563398544060
23, -18845.18, 0.00, 0.00, 0.00, 0.00, 0.00, 0.00, 0.00, 0.000, 0.000, 0.000, 17:22:24.060, 1563398544060
24, -18823.14, 0.00, 0.00, 0.00, 0.00, 0.00, 0.00, 0.00, 0.000, 0.000, 0.000, 17:22:24.060, 1563398544060
25, -18837.29, 0.00, 0.00, 0.00, 0.00, 0.00, 0.00, 0.00, 0.000, 0.000, 0.000, 17:22:24.060, 1563398544060
26, -18875.02, 0.00, 0.00, 0.00, 0.00, 0.00, 0.00, 0.00, 0.000, 0.000, 0.000, 17:22:24.060, 1563398544060
27, -18852.11, 0.00, 0.00, 0.00, 0.00, 0.00, 0.00, 0.00, 0.000, 0.000, 0.000, 17:22:24.060, 1563398544060
28, -18832.75, 0.00, 0.00, 0.00, 0.00, 0.00, 0.00, 0.00, 0.098, 0.024, 1.020, 17:22:24.060, 1563398544060
29, -18826.85, 0.00, 0.00, 0.00, 0.00, 0.00, 0.00, 0.00, 0.000, 0.000, 0.000, 17:22:24.060, 1563398544060
30, -18861.65, 0.00, 0.00, 0.00, 0.00, 0.00, 0.00, 0.00, 0.000, 0.000, 0.000, 17:22:24.060, 1563398544060
31, -18863.46, 0.00, 0.00, 0.00, 0.00, 0.00, 0.00, 0.00, 0.000, 0.000, 0.000, 17:22:24.060, 1563398544060
32, -18838.34, 0.00, 0.00, 0.00, 0.00, 0.00, 0.00, 0.00, 0.000, 0.000, 0.000, 17:22:24.060, 1563398544060
33, -18833.00, 0.00, 0.00, 0.00, 0.00, 0.00, 0.00, 0.00, 0.000, 0.000, 0.000, 17:22:24.060, 1563398544060
34, -18861.16, 0.00, 0.00, 0.00, 0.00, 0.00, 0.00, 0.00, 0.000, 0.000, 0.000, 17:22:24.060, 1563398544060
35, -18869.32, 0.00, 0.00, 0.00, 0.00, 0.00, 0.00, 0.00, 0.000, 0.000, 0.000, 17:22:24.060, 1563398544060
36, -18846.10, 0.00, 0.00, 0.00, 0.00, 0.00, 0.00, 0.00, 0.000, 0.000, 0.000, 17:22:24.060, 1563398544060
37, -18830.65, 0.00, 0.00, 0.00, 0.00, 0.00, 0.00, 0.00, 0.000, 0.000, 0.000, 17:22:24.060, 1563398544060
38, -18854.50, 0.00, 0.00, 0.00, 0.00, 0.00, 0.00, 0.00, 0.100, 0.020, 1.026, 17:22:24.060, 1563398544060
39, -18876.09, 0.00, 0.00, 0.00, 0.00, 0.00, 0.00, 0.00, 0.000, 0.000, 0.000, 17:22:24.060, 1563398544060
40, -18867.96, 0.00, 0.00, 0.00, 0.00, 0.00, 0.00, 0.00, 0.000, 0.000, 0.000, 17:22:24.060, 1563398544060
41, -18828.91, 0.00, 0.00, 0.00, 0.00, 0.00, 0.00, 0.00, 0.000, 0.000, 0.000, 17:22:24.060, 1563398544060
42, -18844.15, 0.00, 0.00, 0.00, 0.00, 0.00, 0.00, 0.00, 0.000, 0.000, 0.000, 17:22:24.060, 1563398544060
43, -18870.93, 0.00, 0.00, 0.00, 0.00, 0.00, 0.00, 0.00, 0.000, 0.000, 0.000, 17:22:24.060, 1563398544060
44, -18856.74, 0.00, 0.00, 0.00, 0.00, 0.00, 0.00, 0.00, 0.000, 0.000, 0.000, 17:22:24.061, 1563398544061
45, -18838.32, 0.00, 0.00, 0.00, 0.00, 0.00, 0.00, 0.00, 0.000, 0.000, 0.000, 17:22:24.061, 1563398544061
46, -18851.06, 0.00, 0.00, 0.00, 0.00, 0.00, 0.00, 0.00, 0.000, 0.000, 0.000, 17:22:24.061, 1563398544061
47, -18867.96, 0.00, 0.00, 0.00, 0.00, 0.00, 0.00, 0.00, 0.000, 0.000, 0.000, 17:22:24.061, 1563398544061
48, -18858.59, 0.00, 0.00, 0.00, 0.00, 0.00, 0.00, 0.00, 0.000, 0.000, 0.000, 17:22:24.061, 1563398544061
49, -18830.36, 0.00, 0.00, 0.00, 0.00, 0.00, 0.00, 0.00, 0.096, 0.024, 1.024, 17:22:24.061, 1563398544061
50, -18846.50, 0.00, 0.00, 0.00, 0.00, 0.00, 0.00, 0.00, 0.000, 0.000, 0.000, 17:22:24.061, 1563398544061
51, -18865.34, 0.00, 0.00, 0.00, 0.00, 0.00, 0.00, 0.00, 0.000, 0.000, 0.000, 17:22:24.061, 1563398544061
52, -18865.63, 0.00, 0.00, 0.00, 0.00, 0.00, 0.00, 0.00, 0.000, 0.000, 0.000, 17:22:24.061, 1563398544061
53, -18831.43, 0.00, 0.00, 0.00, 0.00, 0.00, 0.00, 0.00, 0.000, 0.000, 0.000, 17:22:24.061, 1563398544061
54, -18828.55, 0.00, 0.00, 0.00, 0.00, 0.00, 0.00, 0.00, 0.000, 0.000, 0.000, 17:22:24.061, 1563398544061
55, -18859.55, 0.00, 0.00, 0.00, 0.00, 0.00, 0.00, 0.00, 0.000, 0.000, 0.000, 17:22:24.061, 1563398544061
56, -18874.84, 0.00, 0.00, 0.00, 0.00, 0.00, 0.00, 0.00, 0.000, 0.000, 0.000, 17:22:24.061, 1563398544061
57, -18837.20, 0.00, 0.00, 0.00, 0.00, 0.00, 0.00, 0.00, 0.000, 0.000, 0.000, 17:22:24.061, 1563398544061
58, -18826.40, 0.00, 0.00, 0.00, 0.00, 0.00, 0.00, 0.00, 0.000, 0.000, 0.000, 17:22:24.061, 1563398544061
59, -18863.31, 0.00, 0.00, 0.00, 0.00, 0.00, 0.00, 0.00, 0.100, 0.024, 1.022, 17:22:24.061, 1563398544061
60, -18888.03, 0.00, 0.00, 0.00, 0.00, 0.00, 0.00, 0.00, 0.000, 0.000, 0.000, 17:22:24.061, 1563398544061
61, -18858.70, 0.00, 0.00, 0.00, 0.00, 0.00, 0.00, 0.00, 0.000, 0.000, 0.000, 17:22:24.061, 1563398544061
62, -18829.20, 0.00, 0.00, 0.00, 0.00, 0.00, 0.00, 0.00, 0.000, 0.000, 0.000, 17:22:24.061, 1563398544061
63, -18854.97, 0.00, 0.00, 0.00, 0.00, 0.00, 0.00, 0.00, 0.000, 0.000, 0.000, 17:22:24.061, 1563398544061
64, -18885.46, 0.00, 0.00, 0.00, 0.00, 0.00, 0.00, 0.00, 0.000, 0.000, 0.000, 17:22:24.061, 1563398544061
65, -18857.65, 0.00, 0.00, 0.00, 0.00, 0.00, 0.00, 0.00, 0.000, 0.000, 0.000, 17:22:24.061, 1563398544061
66, -18833.51, 0.00, 0.00, 0.00, 0.00, 0.00, 0.00, 0.00, 0.000, 0.000, 0.000, 17:22:24.061, 1563398544061
67, -18848.18, 0.00, 0.00, 0.00, 0.00, 0.00, 0.00, 0.00, 0.000, 0.000, 0.000, 17:22:24.061, 1563398544061
68, -18875.96, 0.00, 0.00, 0.00, 0.00, 0.00, 0.00, 0.00, 0.000, 0.000, 0.000, 17:22:24.061, 1563398544061
69, -18862.05, 0.00, 0.00, 0.00, 0.00, 0.00, 0.00, 0.00, 0.096, 0.026, 1.016, 17:22:24.062, 1563398544062
70, -18831.39, 0.00, 0.00, 0.00, 0.00, 0.00, 0.00, 0.00, 0.000, 0.000, 0.000, 17:22:24.062, 1563398544062
71, -18844.58, 0.00, 0.00, 0.00, 0.00, 0.00, 0.00, 0.00, 0.000, 0.000, 0.000, 17:22:24.062, 1563398544062
72, -18890.55, 0.00, 0.00, 0.00, 0.00, 0.00, 0.00, 0.00, 0.000, 0.000, 0.000, 17:22:24.062, 1563398544062
73, -18874.77, 0.00, 0.00, 0.00, 0.00, 0.00, 0.00, 0.00, 0.000, 0.000, 0.000, 17:22:24.062, 1563398544062
74, -18825.09, 0.00, 0.00, 0.00, 0.00, 0.00, 0.00, 0.00, 0.000, 0.000, 0.000, 17:22:24.062, 1563398544062
75, -18839.97, 0.00, 0.00, 0.00, 0.00, 0.00, 0.00, 0.00, 0.000, 0.000, 0.000, 17:22:24.062, 1563398544062
76, -18878.21, 0.00, 0.00, 0.00, 0.00, 0.00, 0.00, 0.00, 0.000, 0.000, 0.000, 17:22:24.062, 1563398544062
77, -18858.08, 0.00, 0.00, 0.00, 0.00, 0.00, 0.00, 0.00, 0.000, 0.000, 0.000, 17:22:24.062, 1563398544062
78, -18837.87, 0.00, 0.00, 0.00, 0.00, 0.00, 0.00, 0.00, 0.000, 0.000, 0.000, 17:22:24.062, 1563398544062
79, -18828.17, 0.00, 0.00, 0.00, 0.00, 0.00, 0.00, 0.00, 0.094, 0.022, 1.020, 17:22:24.062, 1563398544062
80, -18839.75, 0.00, 0.00, 0.00, 0.00, 0.00, 0.00, 0.00, 0.000, 0.000, 0.000, 17:22:24.062, 1563398544062
81, -18858.17, 0.00, 0.00, 0.00, 0.00, 0.00, 0.00, 0.00, 0.000, 0.000, 0.000, 17:22:24.062, 1563398544062
82, -18833.62, 0.00, 0.00, 0.00, 0.00, 0.00, 0.00, 0.00, 0.000, 0.000, 0.000, 17:22:24.062, 1563398544062
83, -18833.27, 0.00, 0.00, 0.00, 0.00, 0.00, 0.00, 0.00, 0.000, 0.000, 0.000, 17:22:24.062, 1563398544062
84, -18871.82, 0.00, 0.00, 0.00, 0.00, 0.00, 0.00, 0.00, 0.000, 0.000, 0.000, 17:22:24.062, 1563398544062
85, -18891.16, 0.00, 0.00, 0.00, 0.00, 0.00, 0.00, 0.00, 0.000, 0.000, 0.000, 17:22:24.062, 1563398544062
86, -18881.52, 0.00, 0.00, 0.00, 0.00, 0.00, 0.00, 0.00, 0.000, 0.000, 0.000, 17:22:24.062, 1563398544062
87, -18859.75, 0.00, 0.00, 0.00, 0.00, 0.00, 0.00, 0.00, 0.000, 0.000, 0.000, 17:22:24.062, 1563398544062
88, -18878.24, 0.00, 0.00, 0.00, 0.00, 0.00, 0.00, 0.00, 0.000, 0.000, 0.000, 17:22:24.062, 1563398544062
89, -18903.18, 0.00, 0.00, 0.00, 0.00, 0.00, 0.00, 0.00, 0.102, 0.022, 1.024, 17:22:24.062, 1563398544062
90, -18874.86, 0.00, 0.00, 0.00, 0.00, 0.00, 0.00, 0.00, 0.000, 0.000, 0.000, 17:22:24.062, 1563398544062
91, -18832.21, 0.00, 0.00, 0.00, 0.00, 0.00, 0.00, 0.00, 0.000, 0.000, 0.000, 17:22:24.062, 1563398544062
92, -18861.50, 0.00, 0.00, 0.00, 0.00, 0.00, 0.00, 0.00, 0.000, 0.000, 0.000, 17:22:24.062, 1563398544062
93, -18899.99, 0.00, 0.00, 0.00, 0.00, 0.00, 0.00, 0.00, 0.000, 0.000, 0.000, 17:22:24.062, 1563398544062
94, -18891.94, 0.00, 0.00, 0.00, 0.00, 0.00, 0.00, 0.00, 0.000, 0.000, 0.000, 17:22:24.062, 1563398544062
95, -18871.22, 0.00, 0.00, 0.00, 0.00, 0.00, 0.00, 0.00, 0.000, 0.000, 0.000, 17:22:24.062, 1563398544062
96, -18873.79, 0.00, 0.00, 0.00, 0.00, 0.00, 0.00, 0.00, 0.000, 0.000, 0.000, 17:22:24.062, 1563398544062
97, -18900.99, 0.00, 0.00, 0.00, 0.00, 0.00, 0.00, 0.00, 0.000, 0.000, 0.000, 17:22:24.062, 1563398544062
98, -18906.13, 0.00, 0.00, 0.00, 0.00, 0.00, 0.00, 0.00, 0.000, 0.000, 0.000, 17:22:24.062, 1563398544062
99, -18864.00, 0.00, 0.00, 0.00, 0.00, 0.00, 0.00, 0.00, 0.000, 0.000, 0.000, 17:22:24.063, 1563398544063
100, -18873.86, 0.00, 0.00, 0.00, 0.00, 0.00, 0.00, 0.00, 0.102, 0.026, 1.034, 17:22:24.063, 1563398544063
101, -18921.20, 0.00, 0.00, 0.00, 0.00, 0.00, 0.00, 0.00, 0.000, 0.000, 0.000, 17:22:24.063, 1563398544063
102, -18919.32, 0.00, 0.00, 0.00, 0.00, 0.00, 0.00, 0.00, 0.000, 0.000, 0.000, 17:22:24.063, 1563398544063
103, -18870.59, 0.00, 0.00, 0.00, 0.00, 0.00, 0.00, 0.00, 0.000, 0.000, 0.000, 17:22:24.063, 1563398544063
104, -18873.54, 0.00, 0.00, 0.00, 0.00, 0.00, 0.00, 0.00, 0.000, 0.000, 0.000, 17:22:24.063, 1563398544063
105, -18902.36, 0.00, 0.00, 0.00, 0.00, 0.00, 0.00, 0.00, 0.000, 0.000, 0.000, 17:22:24.063, 1563398544063
106, -18897.88, 0.00, 0.00, 0.00, 0.00, 0.00, 0.00, 0.00, 0.000, 0.000, 0.000, 17:22:24.063, 1563398544063
107, -18885.35, 0.00, 0.00, 0.00, 0.00, 0.00, 0.00, 0.00, 0.000, 0.000, 0.000, 17:22:24.063, 1563398544063
108, -18876.34, 0.00, 0.00, 0.00, 0.00, 0.00, 0.00, 0.00, 0.000, 0.000, 0.000, 17:22:24.063, 1563398544063
109, -18896.30, 0.00, 0.00, 0.00, 0.00, 0.00, 0.00, 0.00, 0.000, 0.000, 0.000, 17:22:24.063, 1563398544063
110, -18925.42, 0.00, 0.00, 0.00, 0.00, 0.00, 0.00, 0.00, 0.104, 0.024, 1.026, 17:22:24.063, 1563398544063
111, -18881.66, 0.00, 0.00, 0.00, 0.00, 0.00, 0.00, 0.00, 0.000, 0.000, 0.000, 17:22:24.063, 1563398544063
112, -18870.62, 0.00, 0.00, 0.00, 0.00, 0.00, 0.00, 0.00, 0.000, 0.000, 0.000, 17:22:24.063, 1563398544063
113, -18895.70, 0.00, 0.00, 0.00, 0.00, 0.00, 0.00, 0.00, 0.000, 0.000, 0.000, 17:22:24.063, 1563398544063
114, -18913.42, 0.00, 0.00, 0.00, 0.00, 0.00, 0.00, 0.00, 0.000, 0.000, 0.000, 17:22:24.063, 1563398544063
115, -18895.98, 0.00, 0.00, 0.00, 0.00, 0.00, 0.00, 0.00, 0.000, 0.000, 0.000, 17:22:24.063, 1563398544063
116, -18877.08, 0.00, 0.00, 0.00, 0.00, 0.00, 0.00, 0.00, 0.000, 0.000, 0.000, 17:22:24.063, 1563398544063
117, -18881.39, 0.00, 0.00, 0.00, 0.00, 0.00, 0.00, 0.00, 0.000, 0.000, 0.000, 17:22:24.063, 1563398544063
118, -18906.49, 0.00, 0.00, 0.00, 0.00, 0.00, 0.00, 0.00, 0.000, 0.000, 0.000, 17:22:24.063, 1563398544063
119, -18895.94, 0.00, 0.00, 0.00, 0.00, 0.00, 0.00, 0.00, 0.000, 0.000, 0.000, 17:22:24.064, 1563398544064
120, -18872.67, 0.00, 0.00, 0.00, 0.00, 0.00, 0.00, 0.00, 0.106, 0.026, 1.026, 17:22:24.064, 1563398544064
121, -18897.33, 0.00, 0.00, 0.00, 0.00, 0.00, 0.00, 0.00, 0.000, 0.000, 0.000, 17:22:24.539, 1563398544539
122, -18912.50, 0.00, 0.00, 0.00, 0.00, 0.00, 0.00, 0.00, 0.000, 0.000, 0.000, 17:22:24.539, 1563398544539
123, -18895.02, 0.00, 0.00, 0.00, 0.00, 0.00, 0.00, 0.00, 0.000, 0.000, 0.000, 17:22:24.539, 1563398544539
124, -18870.48, 0.00, 0.00, 0.00, 0.00, 0.00, 0.00, 0.00, 0.000, 0.000, 0.000, 17:22:24.539, 1563398544539
125, -18891.02, 0.00, 0.00, 0.00, 0.00, 0.00, 0.00, 0.00, 0.000, 0.000, 0.000, 17:22:24.539, 1563398544539
126, -18914.43, 0.00, 0.00, 0.00, 0.00, 0.00, 0.00, 0.00, 0.000, 0.000, 0.000, 17:22:24.539, 1563398544539
127, -18919.10, 0.00, 0.00, 0.00, 0.00, 0.00, 0.00, 0.00, 0.000, 0.000, 0.000, 17:22:24.539, 1563398544539
128, -18876.79, 0.00, 0.00, 0.00, 0.00, 0.00, 0.00, 0.00, 0.000, 0.000, 0.000, 17:22:24.539, 1563398544539
129, -18865.81, 0.00, 0.00, 0.00, 0.00, 0.00, 0.00, 0.00, 0.000, 0.000, 0.000, 17:22:24.539, 1563398544539
130, -18901.21, 0.00, 0.00, 0.00, 0.00, 0.00, 0.00, 0.00, 0.102, 0.030, 1.026, 17:22:24.539, 1563398544539
131, -18913.73, 0.00, 0.00, 0.00, 0.00, 0.00, 0.00, 0.00, 0.000, 0.000, 0.000, 17:22:24.539, 1563398544539
132, -18898.40, 0.00, 0.00, 0.00, 0.00, 0.00, 0.00, 0.00, 0.000, 0.000, 0.000, 17:22:24.539, 1563398544539
133, -18874.19, 0.00, 0.00, 0.00, 0.00, 0.00, 0.00, 0.00, 0.000, 0.000, 0.000, 17:22:24.539, 1563398544539
134, -18905.53, 0.00, 0.00, 0.00, 0.00, 0.00, 0.00, 0.00, 0.000, 0.000, 0.000, 17:22:24.539, 1563398544539
135, -18928.71, 0.00, 0.00, 0.00, 0.00, 0.00, 0.00, 0.00, 0.000, 0.000, 0.000, 17:22:24.539, 1563398544539
136, -18881.99, 0.00, 0.00, 0.00, 0.00, 0.00, 0.00, 0.00, 0.000, 0.000, 0.000, 17:22:24.539, 1563398544539
137, -18869.07, 0.00, 0.00, 0.00, 0.00, 0.00, 0.00, 0.00, 0.000, 0.000, 0.000, 17:22:24.539, 1563398544539
138, -18910.56, 0.00, 0.00, 0.00, 0.00, 0.00, 0.00, 0.00, 0.000, 0.000, 0.000, 17:22:24.539, 1563398544539
139, -18919.90, 0.00, 0.00, 0.00, 0.00, 0.00, 0.00, 0.00, 0.000, 0.000, 0.000, 17:22:24.539, 1563398544539
140, -18889.97, 0.00, 0.00, 0.00, 0.00, 0.00, 0.00, 0.00, 0.108, 0.028, 1.024, 17:22:24.539, 1563398544539
141, -18864.13, 0.00, 0.00, 0.00, 0.00, 0.00, 0.00, 0.00, 0.000, 0.000, 0.000, 17:22:24.539, 1563398544539
142, -18892.12, 0.00, 0.00, 0.00, 0.00, 0.00, 0.00, 0.00, 0.000, 0.000, 0.000, 17:22:24.539, 1563398544539
143, -18930.50, 0.00, 0.00, 0.00, 0.00, 0.00, 0.00, 0.00, 0.000, 0.000, 0.000, 17:22:24.539, 1563398544539
144, -18928.39, 0.00, 0.00, 0.00, 0.00, 0.00, 0.00, 0.00, 0.000, 0.000, 0.000, 17:22:24.539, 1563398544539
145, -18882.98, 0.00, 0.00, 0.00, 0.00, 0.00, 0.00, 0.00, 0.000, 0.000, 0.000, 17:22:24.540, 1563398544540
146, -18884.47, 0.00, 0.00, 0.00, 0.00, 0.00, 0.00, 0.00, 0.000, 0.000, 0.000, 17:22:24.540, 1563398544540
147, -18923.19, 0.00, 0.00, 0.00, 0.00, 0.00, 0.00, 0.00, 0.000, 0.000, 0.000, 17:22:24.540, 1563398544540
148, -18914.29, 0.00, 0.00, 0.00, 0.00, 0.00, 0.00, 0.00, 0.000, 0.000, 0.000, 17:22:24.540, 1563398544540
149, -18884.25, 0.00, 0.00, 0.00, 0.00, 0.00, 0.00, 0.00, 0.000, 0.000, 0.000, 17:22:24.540, 1563398544540
150, -18892.54, 0.00, 0.00, 0.00, 0.00, 0.00, 0.00, 0.00, 0.110, 0.024, 1.022, 17:22:24.540, 1563398544540
151, -18918.45, 0.00, 0.00, 0.00, 0.00, 0.00, 0.00, 0.00, 0.000, 0.000, 0.000, 17:22:24.540, 1563398544540
152, -18917.53, 0.00, 0.00, 0.00, 0.00, 0.00, 0.00, 0.00, 0.000, 0.000, 0.000, 17:22:24.540, 1563398544540
153, -18906.02, 0.00, 0.00, 0.00, 0.00, 0.00, 0.00, 0.00, 0.000, 0.000, 0.000, 17:22:24.540, 1563398544540
154, -18892.37, 0.00, 0.00, 0.00, 0.00, 0.00, 0.00, 0.00, 0.000, 0.000, 0.000, 17:22:24.540, 1563398544540
155, -18921.44, 0.00, 0.00, 0.00, 0.00, 0.00, 0.00, 0.00, 0.000, 0.000, 0.000, 17:22:24.540, 1563398544540
156, -18924.84, 0.00, 0.00, 0.00, 0.00, 0.00, 0.00, 0.00, 0.000, 0.000, 0.000, 17:22:24.540, 1563398544540
157, -18906.92, 0.00, 0.00, 0.00, 0.00, 0.00, 0.00, 0.00, 0.000, 0.000, 0.000, 17:22:24.540, 1563398544540
158, -18883.83, 0.00, 0.00, 0.00, 0.00, 0.00, 0.00, 0.00, 0.000, 0.000, 0.000, 17:22:24.540, 1563398544540
159, -18920.88, 0.00, 0.00, 0.00, 0.00, 0.00, 0.00, 0.00, 0.000, 0.000, 0.000, 17:22:24.540, 1563398544540
160, -18939.66, 0.00, 0.00, 0.00, 0.00, 0.00, 0.00, 0.00, 0.000, 0.000, 0.000, 17:22:24.540, 1563398544540
161, -18909.62, 0.00, 0.00, 0.00, 0.00, 0.00, 0.00, 0.00, 0.110, 0.022, 1.022, 17:22:24.540, 1563398544540
162, -18874.30, 0.00, 0.00, 0.00, 0.00, 0.00, 0.00, 0.00, 0.000, 0.000, 0.000, 17:22:24.540, 1563398544540
163, -18911.45, 0.00, 0.00, 0.00, 0.00, 0.00, 0.00, 0.00, 0.000, 0.000, 0.000, 17:22:24.540, 1563398544540
164, -18949.94, 0.00, 0.00, 0.00, 0.00, 0.00, 0.00, 0.00, 0.000, 0.000, 0.000, 17:22:24.540, 1563398544540
165, -18914.80, 0.00, 0.00, 0.00, 0.00, 0.00, 0.00, 0.00, 0.000, 0.000, 0.000, 17:22:24.540, 1563398544540
166, -18879.02, 0.00, 0.00, 0.00, 0.00, 0.00, 0.00, 0.00, 0.000, 0.000, 0.000, 17:22:24.540, 1563398544540
167, -18892.59, 0.00, 0.00, 0.00, 0.00, 0.00, 0.00, 0.00, 0.000, 0.000, 0.000, 17:22:24.540, 1563398544540
168, -18935.68, 0.00, 0.00, 0.00, 0.00, 0.00, 0.00, 0.00, 0.000, 0.000, 0.000, 17:22:24.540, 1563398544540
169, -18922.27, 0.00, 0.00, 0.00, 0.00, 0.00, 0.00, 0.00, 0.000, 0.000, 0.000, 17:22:24.540, 1563398544540
170, -18885.23, 0.00, 0.00, 0.00, 0.00, 0.00, 0.00, 0.00, 0.000, 0.000, 0.000, 17:22:24.540, 1563398544540
171, -18914.09, 0.00, 0.00, 0.00, 0.00, 0.00, 0.00, 0.00, 0.104, 0.022, 1.022, 17:22:24.540, 1563398544540
172, -18942.23, 0.00, 0.00, 0.00, 0.00, 0.00, 0.00, 0.00, 0.000, 0.000, 0.000, 17:22:24.540, 1563398544540
173, -18925.74, 0.00, 0.00, 0.00, 0.00, 0.00, 0.00, 0.00, 0.000, 0.000, 0.000, 17:22:24.541, 1563398544541
174, -18895.09, 0.00, 0.00, 0.00, 0.00, 0.00, 0.00, 0.00, 0.000, 0.000, 0.000, 17:22:24.541, 1563398544541
175, -18905.53, 0.00, 0.00, 0.00, 0.00, 0.00, 0.00, 0.00, 0.000, 0.000, 0.000, 17:22:24.541, 1563398544541
176, -18952.96, 0.00, 0.00, 0.00, 0.00, 0.00, 0.00, 0.00, 0.000, 0.000, 0.000, 17:22:24.541, 1563398544541
177, -18940.44, 0.00, 0.00, 0.00, 0.00, 0.00, 0.00, 0.00, 0.000, 0.000, 0.000, 17:22:24.541, 1563398544541
178, -18911.77, 0.00, 0.00, 0.00, 0.00, 0.00, 0.00, 0.00, 0.000, 0.000, 0.000, 17:22:24.541, 1563398544541
179, -18904.01, 0.00, 0.00, 0.00, 0.00, 0.00, 0.00, 0.00, 0.000, 0.000, 0.000, 17:22:24.541, 1563398544541
180, -18937.27, 0.00, 0.00, 0.00, 0.00, 0.00, 0.00, 0.00, 0.000, 0.000, 0.000, 17:22:24.541, 1563398544541
181, -18952.45, 0.00, 0.00, 0.00, 0.00, 0.00, 0.00, 0.00, 0.098, 0.024, 1.024, 17:22:24.541, 1563398544541
182, -18901.37, 0.00, 0.00, 0.00, 0.00, 0.00, 0.00, 0.00, 0.000, 0.000, 0.000, 17:22:24.541, 1563398544541
183, -18897.15, 0.00, 0.00, 0.00, 0.00, 0.00, 0.00, 0.00, 0.000, 0.000, 0.000, 17:22:24.541, 1563398544541
184, -18928.48, 0.00, 0.00, 0.00, 0.00, 0.00, 0.00, 0.00, 0.000, 0.000, 0.000, 17:22:24.541, 1563398544541
185, -18935.55, 0.00, 0.00, 0.00, 0.00, 0.00, 0.00, 0.00, 0.000, 0.000, 0.000, 17:22:24.541, 1563398544541
186, -18934.18, 0.00, 0.00, 0.00, 0.00, 0.00, 0.00, 0.00, 0.000, 0.000, 0.000, 17:22:24.541, 1563398544541
187, -18901.95, 0.00, 0.00, 0.00, 0.00, 0.00, 0.00, 0.00, 0.000, 0.000, 0.000, 17:22:24.541, 1563398544541
188, -18924.30, 0.00, 0.00, 0.00, 0.00, 0.00, 0.00, 0.00, 0.000, 0.000, 0.000, 17:22:24.541, 1563398544541
189, -18924.30, 0.00, 0.00, 0.00, 0.00, 0.00, 0.00, 0.00, 0.000, 0.000, 0.000, 17:22:24.541, 1563398544541
190, -18924.24, 0.00, 0.00, 0.00, 0.00, 0.00, 0.00, 0.00, 0.000, 0.000, 0.000, 17:22:24.541, 1563398544541
191, -18912.28, 0.00, 0.00, 0.00, 0.00, 0.00, 0.00, 0.00, 0.094, 0.020, 1.038, 17:22:24.541, 1563398544541
192, -18928.73, 0.00, 0.00, 0.00, 0.00, 0.00, 0.00, 0.00, 0.000, 0.000, 0.000, 17:22:24.541, 1563398544541
193, -18947.60, 0.00, 0.00, 0.00, 0.00, 0.00, 0.00, 0.00, 0.000, 0.000, 0.000, 17:22:24.541, 1563398544541
194, -18918.34, 0.00, 0.00, 0.00, 0.00, 0.00, 0.00, 0.00, 0.000, 0.000, 0.000, 17:22:24.541, 1563398544541
195, -18906.42, 0.00, 0.00, 0.00, 0.00, 0.00, 0.00, 0.00, 0.000, 0.000, 0.000, 17:22:24.541, 1563398544541
196, -18896.99, 0.00, 0.00, 0.00, 0.00, 0.00, 0.00, 0.00, 0.000, 0.000, 0.000, 17:22:24.541, 1563398544541
197, -18935.37, 0.00, 0.00, 0.00, 0.00, 0.00, 0.00, 0.00, 0.000, 0.000, 0.000, 17:22:24.541, 1563398544541
198, -18935.64, 0.00, 0.00, 0.00, 0.00, 0.00, 0.00, 0.00, 0.000, 0.000, 0.000, 17:22:24.541, 1563398544541
199, -18913.06, 0.00, 0.00, 0.00, 0.00, 0.00, 0.00, 0.00, 0.000, 0.000, 0.000, 17:22:24.541, 1563398544541
200, -18923.23, 0.00, 0.00, 0.00, 0.00, 0.00, 0.00, 0.00, 0.000, 0.000, 0.000, 17:22:24.541, 1563398544541
201, -18962.91, 0.00, 0.00, 0.00, 0.00, 0.00, 0.00, 0.00, 0.102, 0.020, 1.032, 17:22:24.542, 1563398544542
202, -18941.22, 0.00, 0.00, 0.00, 0.00, 0.00, 0.00, 0.00, 0.000, 0.000, 0.000, 17:22:24.542, 1563398544542
203, -18893.19, 0.00, 0.00, 0.00, 0.00, 0.00, 0.00, 0.00, 0.000, 0.000, 0.000, 17:22:24.542, 1563398544542
204, -18908.64, 0.00, 0.00, 0.00, 0.00, 0.00, 0.00, 0.00, 0.000, 0.000, 0.000, 17:22:24.542, 1563398544542
205, -18952.40, 0.00, 0.00, 0.00, 0.00, 0.00, 0.00, 0.00, 0.000, 0.000, 0.000, 17:22:24.542, 1563398544542
206, -18962.46, 0.00, 0.00, 0.00, 0.00, 0.00, 0.00, 0.00, 0.000, 0.000, 0.000, 17:22:24.542, 1563398544542
207, -18898.62, 0.00, 0.00, 0.00, 0.00, 0.00, 0.00, 0.00, 0.000, 0.000, 0.000, 17:22:24.542, 1563398544542
208, -18885.81, 0.00, 0.00, 0.00, 0.00, 0.00, 0.00, 0.00, 0.000, 0.000, 0.000, 17:22:24.542, 1563398544542
209, -18904.68, 0.00, 0.00, 0.00, 0.00, 0.00, 0.00, 0.00, 0.000, 0.000, 0.000, 17:22:24.542, 1563398544542
210, -18945.72, 0.00, 0.00, 0.00, 0.00, 0.00, 0.00, 0.00, 0.000, 0.000, 0.000, 17:22:24.542, 1563398544542
211, -18919.86, 0.00, 0.00, 0.00, 0.00, 0.00, 0.00, 0.00, 0.000, 0.000, 0.000, 17:22:24.542, 1563398544542
212, -18887.60, 0.00, 0.00, 0.00, 0.00, 0.00, 0.00, 0.00, 0.098, 0.022, 1.034, 17:22:24.542, 1563398544542
213, -18906.02, 0.00, 0.00, 0.00, 0.00, 0.00, 0.00, 0.00, 0.000, 0.000, 0.000, 17:22:24.543, 1563398544543
214, -18916.30, 0.00, 0.00, 0.00, 0.00, 0.00, 0.00, 0.00, 0.000, 0.000, 0.000, 17:22:24.543, 1563398544543
215, -18926.50, 0.00, 0.00, 0.00, 0.00, 0.00, 0.00, 0.00, 0.000, 0.000, 0.000, 17:22:24.543, 1563398544543
216, -18917.22, 0.00, 0.00, 0.00, 0.00, 0.00, 0.00, 0.00, 0.000, 0.000, 0.000, 17:22:24.543, 1563398544543
217, -18935.88, 0.00, 0.00, 0.00, 0.00, 0.00, 0.00, 0.00, 0.000, 0.000, 0.000, 17:22:24.543, 1563398544543
218, -18977.30, 0.00, 0.00, 0.00, 0.00, 0.00, 0.00, 0.00, 0.000, 0.000, 0.000, 17:22:24.543, 1563398544543
219, -18975.94, 0.00, 0.00, 0.00, 0.00, 0.00, 0.00, 0.00, 0.000, 0.000, 0.000, 17:22:24.543, 1563398544543
220, -18937.56, 0.00, 0.00, 0.00, 0.00, 0.00, 0.00, 0.00, 0.000, 0.000, 0.000, 17:22:24.543, 1563398544543
221, -18932.87, 0.00, 0.00, 0.00, 0.00, 0.00, 0.00, 0.00, 0.000, 0.000, 0.000, 17:22:24.543, 1563398544543
222, -18973.41, 0.00, 0.00, 0.00, 0.00, 0.00, 0.00, 0.00, 0.104, 0.024, 1.026, 17:22:24.543, 1563398544543
223, -18983.20, 0.00, 0.00, 0.00, 0.00, 0.00, 0.00, 0.00, 0.000, 0.000, 0.000, 17:22:24.543, 1563398544543
224, -18935.37, 0.00, 0.00, 0.00, 0.00, 0.00, 0.00, 0.00, 0.000, 0.000, 0.000, 17:22:24.543, 1563398544543
225, -18917.98, 0.00, 0.00, 0.00, 0.00, 0.00, 0.00, 0.00, 0.000, 0.000, 0.000, 17:22:24.543, 1563398544543
226, -18965.37, 0.00, 0.00, 0.00, 0.00, 0.00, 0.00, 0.00, 0.000, 0.000, 0.000, 17:22:24.543, 1563398544543
227, -18981.14, 0.00, 0.00, 0.00, 0.00, 0.00, 0.00, 0.00, 0.000, 0.000, 0.000, 17:22:24.543, 1563398544543
228, -18952.09, 0.00, 0.00, 0.00, 0.00, 0.00, 0.00, 0.00, 0.000, 0.000, 0.000, 17:22:24.543, 1563398544543
229, -18911.07, 0.00, 0.00, 0.00, 0.00, 0.00, 0.00, 0.00, 0.000, 0.000, 0.000, 17:22:24.543, 1563398544543
230, -18940.13, 0.00, 0.00, 0.00, 0.00, 0.00, 0.00, 0.00, 0.000, 0.000, 0.000, 17:22:24.543, 1563398544543
231, -18960.47, 0.00, 0.00, 0.00, 0.00, 0.00, 0.00, 0.00, 0.000, 0.000, 0.000, 17:22:24.543, 1563398544543
232, -18942.61, 0.00, 0.00, 0.00, 0.00, 0.00, 0.00, 0.00, 0.104, 0.024, 1.034, 17:22:24.543, 1563398544543
233, -18919.37, 0.00, 0.00, 0.00, 0.00, 0.00, 0.00, 0.00, 0.000, 0.000, 0.000, 17:22:24.543, 1563398544543
234, -18947.82, 0.00, 0.00, 0.00, 0.00, 0.00, 0.00, 0.00, 0.000, 0.000, 0.000, 17:22:24.543, 1563398544543
235, -18963.87, 0.00, 0.00, 0.00, 0.00, 0.00, 0.00, 0.00, 0.000, 0.000, 0.000, 17:22:24.543, 1563398544543
236, -18940.42, 0.00, 0.00, 0.00, 0.00, 0.00, 0.00, 0.00, 0.000, 0.000, 0.000, 17:22:24.543, 1563398544543
237, -18923.01, 0.00, 0.00, 0.00, 0.00, 0.00, 0.00, 0.00, 0.000, 0.000, 0.000, 17:22:24.544, 1563398544544
238, -18952.00, 0.00, 0.00, 0.00, 0.00, 0.00, 0.00, 0.00, 0.000, 0.000, 0.000, 17:22:24.544, 1563398544544
239, -18941.49, 0.00, 0.00, 0.00, 0.00, 0.00, 0.00, 0.00, 0.000, 0.000, 0.000, 17:22:24.544, 1563398544544
240, -18956.22, 0.00, 0.00, 0.00, 0.00, 0.00, 0.00, 0.00, 0.000, 0.000, 0.000, 17:22:24.544, 1563398544544
241, -18928.73, 0.00, 0.00, 0.00, 0.00, 0.00, 0.00, 0.00, 0.000, 0.000, 0.000, 17:22:25.020, 1563398545020
242, -18942.97, 0.00, 0.00, 0.00, 0.00, 0.00, 0.00, 0.00, 0.100, 0.020, 1.036, 17:22:25.020, 1563398545020
243, -18985.86, 0.00, 0.00, 0.00, 0.00, 0.00, 0.00, 0.00, 0.000, 0.000, 0.000, 17:22:25.020, 1563398545020
244, -18936.22, 0.00, 0.00, 0.00, 0.00, 0.00, 0.00, 0.00, 0.000, 0.000, 0.000, 17:22:25.020, 1563398545020
245, -18888.81, 0.00, 0.00, 0.00, 0.00, 0.00, 0.00, 0.00, 0.000, 0.000, 0.000, 17:22:25.020, 1563398545020
246, -18912.86, 0.00, 0.00, 0.00, 0.00, 0.00, 0.00, 0.00, 0.000, 0.000, 0.000, 17:22:25.020, 1563398545020
247, -18968.79, 0.00, 0.00, 0.00, 0.00, 0.00, 0.00, 0.00, 0.000, 0.000, 0.000, 17:22:25.020, 1563398545020
248, -18953.03, 0.00, 0.00, 0.00, 0.00, 0.00, 0.00, 0.00, 0.000, 0.000, 0.000, 17:22:25.020, 1563398545020
249, -18899.63, 0.00, 0.00, 0.00, 0.00, 0.00, 0.00, 0.00, 0.000, 0.000, 0.000, 17:22:25.020, 1563398545020
250, -18908.12, 0.00, 0.00, 0.00, 0.00, 0.00, 0.00, 0.00, 0.000, 0.000, 0.000, 17:22:25.020, 1563398545020
251, -18955.31, 0.00, 0.00, 0.00, 0.00, 0.00, 0.00, 0.00, 0.000, 0.000, 0.000, 17:22:25.020, 1563398545020
252, -18954.17, 0.00, 0.00, 0.00, 0.00, 0.00, 0.00, 0.00, 0.100, 0.022, 1.024, 17:22:25.020, 1563398545020
253, -18924.42, 0.00, 0.00, 0.00, 0.00, 0.00, 0.00, 0.00, 0.000, 0.000, 0.000, 17:22:25.020, 1563398545020
254, -18912.59, 0.00, 0.00, 0.00, 0.00, 0.00, 0.00, 0.00, 0.000, 0.000, 0.000, 17:22:25.020, 1563398545020
255, -18935.26, 0.00, 0.00, 0.00, 0.00, 0.00, 0.00, 0.00, 0.000, 0.000, 0.000, 17:22:25.020, 1563398545020
0, -18968.05, 0.00, 0.00, 0.00, 0.00, 0.00, 0.00, 0.00, 0.000, 0.000, 0.000, 17:22:25.020, 1563398545020
1, -18934.45, 0.00, 0.00, 0.00, 0.00, 0.00, 0.00, 0.00, 0.000, 0.000, 0.000, 17:22:25.020, 1563398545020
2, -18894.67, 0.00, 0.00, 0.00, 0.00, 0.00, 0.00, 0.00, 0.000, 0.000, 0.000, 17:22:25.020, 1563398545020
3, -18928.78, 0.00, 0.00, 0.00, 0.00, 0.00, 0.00, 0.00, 0.000, 0.000, 0.000, 17:22:25.020, 1563398545020
4, -18964.43, 0.00, 0.00, 0.00, 0.00, 0.00, 0.00, 0.00, 0.000, 0.000, 0.000, 17:22:25.020, 1563398545020
5, -18930.81, 0.00, 0.00, 0.00, 0.00, 0.00, 0.00, 0.00, 0.000, 0.000, 0.000, 17:22:25.020, 1563398545020
6, -18911.50, 0.00, 0.00, 0.00, 0.00, 0.00, 0.00, 0.00, 0.098, 0.020, 1.024, 17:22:25.021, 1563398545021
7, -18948.04, 0.00, 0.00, 0.00, 0.00, 0.00, 0.00, 0.00, 0.000, 0.000, 0.000, 17:22:25.021, 1563398545021
8, -18980.59, 0.00, 0.00, 0.00, 0.00, 0.00, 0.00, 0.00, 0.000, 0.000, 0.000, 17:22:25.021, 1563398545021
9, -18956.18, 0.00, 0.00, 0.00, 0.00, 0.00, 0.00, 0.00, 0.000, 0.000, 0.000, 17:22:25.021, 1563398545021
10, -18907.59, 0.00, 0.00, 0.00, 0.00, 0.00, 0.00, 0.00, 0.000, 0.000, 0.000, 17:22:25.021, 1563398545021
11, -18924.19, 0.00, 0.00, 0.00, 0.00, 0.00, 0.00, 0.00, 0.000, 0.000, 0.000, 17:22:25.021, 1563398545021
12, -18954.21, 0.00, 0.00, 0.00, 0.00, 0.00, 0.00, 0.00, 0.000, 0.000, 0.000, 17:22:25.021, 1563398545021
13, -18943.19, 0.00, 0.00, 0.00, 0.00, 0.00, 0.00, 0.00, 0.000, 0.000, 0.000, 17:22:25.021, 1563398545021
14, -18911.54, 0.00, 0.00, 0.00, 0.00, 0.00, 0.00, 0.00, 0.000, 0.000, 0.000, 17:22:25.021, 1563398545021
15, -18946.61, 0.00, 0.00, 0.00, 0.00, 0.00, 0.00, 0.00, 0.000, 0.000, 0.000, 17:22:25.021, 1563398545021
16, -18965.66, 0.00, 0.00, 0.00, 0.00, 0.00, 0.00, 0.00, 0.000, 0.000, 0.000, 17:22:25.021, 1563398545021
17, -18956.74, 0.00, 0.00, 0.00, 0.00, 0.00, 0.00, 0.00, 0.100, 0.020, 1.024, 17:22:25.021, 1563398545021
18, -18934.81, 0.00, 0.00, 0.00, 0.00, 0.00, 0.00, 0.00, 0.000, 0.000, 0.000, 17:22:25.021, 1563398545021
19, -18933.25, 0.00, 0.00, 0.00, 0.00, 0.00, 0.00, 0.00, 0.000, 0.000, 0.000, 17:22:25.021, 1563398545021
20, -18966.08, 0.00, 0.00, 0.00, 0.00, 0.00, 0.00, 0.00, 0.000, 0.000, 0.000, 17:22:25.021, 1563398545021
21, -18935.19, 0.00, 0.00, 0.00, 0.00, 0.00, 0.00, 0.00, 0.000, 0.000, 0.000, 17:22:25.021, 1563398545021
22, -18932.96, 0.00, 0.00, 0.00, 0.00, 0.00, 0.00, 0.00, 0.000, 0.000, 0.000, 17:22:25.021, 1563398545021
23, -18933.92, 0.00, 0.00, 0.00, 0.00, 0.00, 0.00, 0.00, 0.000, 0.000, 0.000, 17:22:25.022, 1563398545022
24, -18952.76, 0.00, 0.00, 0.00, 0.00, 0.00, 0.00, 0.00, 0.000, 0.000, 0.000, 17:22:25.022, 1563398545022
25, -18946.59, 0.00, 0.00, 0.00, 0.00, 0.00, 0.00, 0.00, 0.000, 0.000, 0.000, 17:22:25.022, 1563398545022
26, -18935.86, 0.00, 0.00, 0.00, 0.00, 0.00, 0.00, 0.00, 0.000, 0.000, 0.000, 17:22:25.022, 1563398545022
27, -18912.75, 0.00, 0.00, 0.00, 0.00, 0.00, 0.00, 0.00, 0.098, 0.018, 1.026, 17:22:25.022, 1563398545022
28, -18937.25, 0.00, 0.00, 0.00, 0.00, 0.00, 0.00, 0.00, 0.000, 0.000, 0.000, 17:22:25.022, 1563398545022
29, -18970.06, 0.00, 0.00, 0.00, 0.00, 0.00, 0.00, 0.00, 0.000, 0.000, 0.000, 17:22:25.022, 1563398545022
30, -18962.97, 0.00, 0.00, 0.00, 0.00, 0.00, 0.00, 0.00, 0.000, 0.000, 0.000, 17:22:25.022, 1563398545022
31, -18927.43, 0.00, 0.00, 0.00, 0.00, 0.00, 0.00, 0.00, 0.000, 0.000, 0.000, 17:22:25.022, 1563398545022
32, -18914.09, 0.00, 0.00, 0.00, 0.00, 0.00, 0.00, 0.00, 0.000, 0.000, 0.000, 17:22:25.022, 1563398545022
33, -18950.19, 0.00, 0.00, 0.00, 0.00, 0.00, 0.00, 0.00, 0.000, 0.000, 0.000, 17:22:25.022, 1563398545022
34, -18962.21, 0.00, 0.00, 0.00, 0.00, 0.00, 0.00, 0.00, 0.000, 0.000, 0.000, 17:22:25.022, 1563398545022
35, -18926.81, 0.00, 0.00, 0.00, 0.00, 0.00, 0.00, 0.00, 0.000, 0.000, 0.000, 17:22:25.022, 1563398545022
36, -18949.90, 0.00, 0.00, 0.00, 0.00, 0.00, 0.00, 0.00, 0.000, 0.000, 0.000, 17:22:25.022, 1563398545022
37, -18982.38, 0.00, 0.00, 0.00, 0.00, 0.00, 0.00, 0.00, 0.100, 0.022, 1.026, 17:22:25.022, 1563398545022
38, -18956.74, 0.00, 0.00, 0.00, 0.00, 0.00, 0.00, 0.00, 0.000, 0.000, 0.000, 17:22:25.022, 1563398545022
39, -18925.24, 0.00, 0.00, 0.00, 0.00, 0.00, 0.00, 0.00, 0.000, 0.000, 0.000, 17:22:25.022, 1563398545022
40, -18942.37, 0.00, 0.00, 0.00, 0.00, 0.00, 0.00, 0.00, 0.000, 0.000, 0.000, 17:22:25.022, 1563398545022
41, -18978.66, 0.00, 0.00, 0.00, 0.00, 0.00, 0.00, 0.00, 0.000, 0.000, 0.000, 17:22:25.022, 1563398545022
42, -18968.14, 0.00, 0.00, 0.00, 0.00, 0.00, 0.00, 0.00, 0.000, 0.000, 0.000, 17:22:25.022, 1563398545022
43, -18930.96, 0.00, 0.00, 0.00, 0.00, 0.00, 0.00, 0.00, 0.000, 0.000, 0.000, 17:22:25.022, 1563398545022
44, -18934.61, 0.00, 0.00, 0.00, 0.00, 0.00, 0.00, 0.00, 0.000, 0.000, 0.000, 17:22:25.022, 1563398545022
45, -18973.26, 0.00, 0.00, 0.00, 0.00, 0.00, 0.00, 0.00, 0.000, 0.000, 0.000, 17:22:25.022, 1563398545022
46, -19011.77, 0.00, 0.00, 0.00, 0.00, 0.00, 0.00, 0.00, 0.000, 0.000, 0.000, 17:22:25.022, 1563398545022
47, -18975.00, 0.00, 0.00, 0.00, 0.00, 0.00, 0.00, 0.00, 0.100, 0.024, 1.024, 17:22:25.022, 1563398545022
48, -18945.88, 0.00, 0.00, 0.00, 0.00, 0.00, 0.00, 0.00, 0.000, 0.000, 0.000, 17:22:25.022, 1563398545022
49, -18961.03, 0.00, 0.00, 0.00, 0.00, 0.00, 0.00, 0.00, 0.000, 0.000, 0.000, 17:22:25.022, 1563398545022
50, -18970.17, 0.00, 0.00, 0.00, 0.00, 0.00, 0.00, 0.00, 0.000, 0.000, 0.000, 17:22:25.022, 1563398545022
51, -18949.85, 0.00, 0.00, 0.00, 0.00, 0.00, 0.00, 0.00, 0.000, 0.000, 0.000, 17:22:25.022, 1563398545022
52, -18944.04, 0.00, 0.00, 0.00, 0.00, 0.00, 0.00, 0.00, 0.000, 0.000, 0.000, 17:22:25.022, 1563398545022
53, -18976.32, 0.00, 0.00, 0.00, 0.00, 0.00, 0.00, 0.00, 0.000, 0.000, 0.000, 17:22:25.022, 1563398545022
54, -18985.59, 0.00, 0.00, 0.00, 0.00, 0.00, 0.00, 0.00, 0.000, 0.000, 0.000, 17:22:25.022, 1563398545022
55, -18975.45, 0.00, 0.00, 0.00, 0.00, 0.00, 0.00, 0.00, 0.000, 0.000, 0.000, 17:22:25.023, 1563398545023
56, -18933.29, 0.00, 0.00, 0.00, 0.00, 0.00, 0.00, 0.00, 0.000, 0.000, 0.000, 17:22:25.023, 1563398545023
57, -18944.29, 0.00, 0.00, 0.00, 0.00, 0.00, 0.00, 0.00, 0.096, 0.026, 1.022, 17:22:25.023, 1563398545023
58, -18985.93, 0.00, 0.00, 0.00, 0.00, 0.00, 0.00, 0.00, 0.000, 0.000, 0.000, 17:22:25.023, 1563398545023
59, -18963.26, 0.00, 0.00, 0.00, 0.00, 0.00, 0.00, 0.00, 0.000, 0.000, 0.000, 17:22:25.023, 1563398545023
60, -18917.22, 0.00, 0.00, 0.00, 0.00, 0.00, 0.00, 0.00, 0.000, 0.000, 0.000, 17:22:25.023, 1563398545023
61, -18954.21, 0.00, 0.00, 0.00, 0.00, 0.00, 0.00, 0.00, 0.000, 0.000, 0.000, 17:22:25.023, 1563398545023
62, -18985.79, 0.00, 0.00, 0.00, 0.00, 0.00, 0.00, 0.00, 0.000, 0.000, 0.000, 17:22:25.024, 1563398545024
63, -18978.33, 0.00, 0.00, 0.00, 0.00, 0.00, 0.00, 0.00, 0.000, 0.000, 0.000, 17:22:25.024, 1563398545024
64, -18949.09, 0.00, 0.00, 0.00, 0.00, 0.00, 0.00, 0.00, 0.000, 0.000, 0.000, 17:22:25.024, 1563398545024
65, -18938.72, 0.00, 0.00, 0.00, 0.00, 0.00, 0.00, 0.00, 0.000, 0.000, 0.000, 17:22:25.024, 1563398545024
66, -18967.73, 0.00, 0.00, 0.00, 0.00, 0.00, 0.00, 0.00, 0.000, 0.000, 0.000, 17:22:25.024, 1563398545024
67, -18963.20, 0.00, 0.00, 0.00, 0.00, 0.00, 0.00, 0.00, 0.000, 0.000, 0.000, 17:22:25.024, 1563398545024
68, -18942.79, 0.00, 0.00, 0.00, 0.00, 0.00, 0.00, 0.00, 0.094, 0.030, 1.026, 17:22:25.024, 1563398545024
69, -18960.36, 0.00, 0.00, 0.00, 0.00, 0.00, 0.00, 0.00, 0.000, 0.000, 0.000, 17:22:25.024, 1563398545024
70, -18953.36, 0.00, 0.00, 0.00, 0.00, 0.00, 0.00, 0.00, 0.000, 0.000, 0.000, 17:22:25.024, 1563398545024
71, -18949.76, 0.00, 0.00, 0.00, 0.00, 0.00, 0.00, 0.00, 0.000, 0.000, 0.000, 17:22:25.024, 1563398545024
72, -18946.50, 0.00, 0.00, 0.00, 0.00, 0.00, 0.00, 0.00, 0.000, 0.000, 0.000, 17:22:25.024, 1563398545024
73, -18948.02, 0.00, 0.00, 0.00, 0.00, 0.00, 0.00, 0.00, 0.000, 0.000, 0.000, 17:22:25.024, 1563398545024
74, -18965.19, 0.00, 0.00, 0.00, 0.00, 0.00, 0.00, 0.00, 0.000, 0.000, 0.000, 17:22:25.024, 1563398545024
75, -18964.94, 0.00, 0.00, 0.00, 0.00, 0.00, 0.00, 0.00, 0.000, 0.000, 0.000, 17:22:25.024, 1563398545024
76, -18938.14, 0.00, 0.00, 0.00, 0.00, 0.00, 0.00, 0.00, 0.000, 0.000, 0.000, 17:22:25.024, 1563398545024
77, -18927.28, 0.00, 0.00, 0.00, 0.00, 0.00, 0.00, 0.00, 0.000, 0.000, 0.000, 17:22:25.024, 1563398545024
78, -18967.40, 0.00, 0.00, 0.00, 0.00, 0.00, 0.00, 0.00, 0.096, 0.028, 1.028, 17:22:25.024, 1563398545024
79, -18987.34, 0.00, 0.00, 0.00, 0.00, 0.00, 0.00, 0.00, 0.000, 0.000, 0.000, 17:22:25.024, 1563398545024
80, -18983.29, 0.00, 0.00, 0.00, 0.00, 0.00, 0.00, 0.00, 0.000, 0.000, 0.000, 17:22:25.024, 1563398545024
81, -18950.86, 0.00, 0.00, 0.00, 0.00, 0.00, 0.00, 0.00, 0.000, 0.000, 0.000, 17:22:25.024, 1563398545024
82, -18951.78, 0.00, 0.00, 0.00, 0.00, 0.00, 0.00, 0.00, 0.000, 0.000, 0.000, 17:22:25.024, 1563398545024
83, -18986.82, 0.00, 0.00, 0.00, 0.00, 0.00, 0.00, 0.00, 0.000, 0.000, 0.000, 17:22:25.024, 1563398545024
84, -18954.44, 0.00, 0.00, 0.00, 0.00, 0.00, 0.00, 0.00, 0.000, 0.000, 0.000, 17:22:25.024, 1563398545024
85, -18953.90, 0.00, 0.00, 0.00, 0.00, 0.00, 0.00, 0.00, 0.000, 0.000, 0.000, 17:22:25.024, 1563398545024
86, -18982.93, 0.00, 0.00, 0.00, 0.00, 0.00, 0.00, 0.00, 0.000, 0.000, 0.000, 17:22:25.024, 1563398545024
87, -18984.03, 0.00, 0.00, 0.00, 0.00, 0.00, 0.00, 0.00, 0.000, 0.000, 0.000, 17:22:25.024, 1563398545024
88, -18973.66, 0.00, 0.00, 0.00, 0.00, 0.00, 0.00, 0.00, 0.094, 0.028, 1.030, 17:22:25.024, 1563398545024
89, -18950.63, 0.00, 0.00, 0.00, 0.00, 0.00, 0.00, 0.00, 0.000, 0.000, 0.000, 17:22:25.024, 1563398545024
90, -18964.09, 0.00, 0.00, 0.00, 0.00, 0.00, 0.00, 0.00, 0.000, 0.000, 0.000, 17:22:25.024, 1563398545024
91, -19005.13, 0.00, 0.00, 0.00, 0.00, 0.00, 0.00, 0.00, 0.000, 0.000, 0.000, 17:22:25.025, 1563398545025
92, -19008.57, 0.00, 0.00, 0.00, 0.00, 0.00, 0.00, 0.00, 0.000, 0.000, 0.000, 17:22:25.025, 1563398545025
93, -18979.74, 0.00, 0.00, 0.00, 0.00, 0.00, 0.00, 0.00, 0.000, 0.000, 0.000, 17:22:25.025, 1563398545025
94, -18971.09, 0.00, 0.00, 0.00, 0.00, 0.00, 0.00, 0.00, 0.000, 0.000, 0.000, 17:22:25.025, 1563398545025
95, -19031.24, 0.00, 0.00, 0.00, 0.00, 0.00, 0.00, 0.00, 0.000, 0.000, 0.000, 17:22:25.025, 1563398545025
96, -18991.36, 0.00, 0.00, 0.00, 0.00, 0.00, 0.00, 0.00, 0.000, 0.000, 0.000, 17:22:25.025, 1563398545025
97, -18973.03, 0.00, 0.00, 0.00, 0.00, 0.00, 0.00, 0.00, 0.000, 0.000, 0.000, 17:22:25.025, 1563398545025
98, -18970.06, 0.00, 0.00, 0.00, 0.00, 0.00, 0.00, 0.00, 0.102, 0.026, 1.030, 17:22:25.025, 1563398545025
99, -18994.09, 0.00, 0.00, 0.00, 0.00, 0.00, 0.00, 0.00, 0.000, 0.000, 0.000, 17:22:25.025, 1563398545025
100, -19010.72, 0.00, 0.00, 0.00, 0.00, 0.00, 0.00, 0.00, 0.000, 0.000, 0.000, 17:22:25.025, 1563398545025
101, -18991.29, 0.00, 0.00, 0.00, 0.00, 0.00, 0.00, 0.00, 0.000, 0.000, 0.000, 17:22:25.025, 1563398545025
102, -18975.76, 0.00, 0.00, 0.00, 0.00, 0.00, 0.00, 0.00, 0.000, 0.000, 0.000, 17:22:25.025, 1563398545025
103, -19009.55, 0.00, 0.00, 0.00, 0.00, 0.00, 0.00, 0.00, 0.000, 0.000, 0.000, 17:22:25.025, 1563398545025
104, -19003.50, 0.00, 0.00, 0.00, 0.00, 0.00, 0.00, 0.00, 0.000, 0.000, 0.000, 17:22:25.025, 1563398545025
105, -18996.54, 0.00, 0.00, 0.00, 0.00, 0.00, 0.00, 0.00, 0.000, 0.000, 0.000, 17:22:25.500, 1563398545500
106, -18985.10, 0.00, 0.00, 0.00, 0.00, 0.00, 0.00, 0.00, 0.000, 0.000, 0.000, 17:22:25.500, 1563398545500
107, -18997.89, 0.00, 0.00, 0.00, 0.00, 0.00, 0.00, 0.00, 0.000, 0.000, 0.000, 17:22:25.500, 1563398545500
108, -19015.70, 0.00, 0.00, 0.00, 0.00, 0.00, 0.00, 0.00, 0.098, 0.028, 1.030, 17:22:25.500, 1563398545500
109, -18994.33, 0.00, 0.00, 0.00, 0.00, 0.00, 0.00, 0.00, 0.000, 0.000, 0.000, 17:22:25.500, 1563398545500
110, -18972.79, 0.00, 0.00, 0.00, 0.00, 0.00, 0.00, 0.00, 0.000, 0.000, 0.000, 17:22:25.500, 1563398545500
111, -19009.22, 0.00, 0.00, 0.00, 0.00, 0.00, 0.00, 0.00, 0.000, 0.000, 0.000, 17:22:25.500, 1563398545500
112, -19009.11, 0.00, 0.00, 0.00, 0.00, 0.00, 0.00, 0.00, 0.000, 0.000, 0.000, 17:22:25.500, 1563398545500
113, -18991.58, 0.00, 0.00, 0.00, 0.00, 0.00, 0.00, 0.00, 0.000, 0.000, 0.000, 17:22:25.500, 1563398545500
114, -18970.80, 0.00, 0.00, 0.00, 0.00, 0.00, 0.00, 0.00, 0.000, 0.000, 0.000, 17:22:25.500, 1563398545500
115, -18979.63, 0.00, 0.00, 0.00, 0.00, 0.00, 0.00, 0.00, 0.000, 0.000, 0.000, 17:22:25.500, 1563398545500
116, -18975.11, 0.00, 0.00, 0.00, 0.00, 0.00, 0.00, 0.00, 0.000, 0.000, 0.000, 17:22:25.500, 1563398545500
117, -18999.63, 0.00, 0.00, 0.00, 0.00, 0.00, 0.00, 0.00, 0.000, 0.000, 0.000, 17:22:25.500, 1563398545500
118, -19002.27, 0.00, 0.00, 0.00, 0.00, 0.00, 0.00, 0.00, 0.098, 0.028, 1.030, 17:22:25.500, 1563398545500
119, -18995.76, 0.00, 0.00, 0.00, 0.00, 0.00, 0.00, 0.00, 0.000, 0.000, 0.000, 17:22:25.500, 1563398545500
120, -19035.15, 0.00, 0.00, 0.00, 0.00, 0.00, 0.00, 0.00, 0.000, 0.000, 0.000, 17:22:25.500, 1563398545500
121, -19044.33, 0.00, 0.00, 0.00, 0.00, 0.00, 0.00, 0.00, 0.000, 0.000, 0.000, 17:22:25.500, 1563398545500
122, -18996.99, 0.00, 0.00, 0.00, 0.00, 0.00, 0.00, 0.00, 0.000, 0.000, 0.000, 17:22:25.501, 1563398545501
123, -18991.54, 0.00, 0.00, 0.00, 0.00, 0.00, 0.00, 0.00, 0.000, 0.000, 0.000, 17:22:25.501, 1563398545501
124, -19035.42, 0.00, 0.00, 0.00, 0.00, 0.00, 0.00, 0.00, 0.000, 0.000, 0.000, 17:22:25.501, 1563398545501
125, -19021.71, 0.00, 0.00, 0.00, 0.00, 0.00, 0.00, 0.00, 0.000, 0.000, 0.000, 17:22:25.501, 1563398545501
126, -19009.06, 0.00, 0.00, 0.00, 0.00, 0.00, 0.00, 0.00, 0.000, 0.000, 0.000, 17:22:25.501, 1563398545501
127, -19007.90, 0.00, 0.00, 0.00, 0.00, 0.00, 0.00, 0.00, 0.000, 0.000, 0.000, 17:22:25.501, 1563398545501
128, -19010.74, 0.00, 0.00, 0.00, 0.00, 0.00, 0.00, 0.00, 0.000, 0.000, 0.000, 17:22:25.501, 1563398545501
129, -19020.64, 0.00, 0.00, 0.00, 0.00, 0.00, 0.00, 0.00, 0.104, 0.024, 1.040, 17:22:25.501, 1563398545501
130, -19005.33, 0.00, 0.00, 0.00, 0.00, 0.00, 0.00, 0.00, 0.000, 0.000, 0.000, 17:22:25.501, 1563398545501
131, -18993.06, 0.00, 0.00, 0.00, 0.00, 0.00, 0.00, 0.00, 0.000, 0.000, 0.000, 17:22:25.501, 1563398545501
132, -19026.05, 0.00, 0.00, 0.00, 0.00, 0.00, 0.00, 0.00, 0.000, 0.000, 0.000, 17:22:25.501, 1563398545501
133, -19037.29, 0.00, 0.00, 0.00, 0.00, 0.00, 0.00, 0.00, 0.000, 0.000, 0.000, 17:22:25.501, 1563398545501
134, -18999.34, 0.00, 0.00, 0.00, 0.00, 0.00, 0.00, 0.00, 0.000, 0.000, 0.000, 17:22:25.501, 1563398545501
135, -18977.97, 0.00, 0.00, 0.00, 0.00, 0.00, 0.00, 0.00, 0.000, 0.000, 0.000, 17:22:25.501, 1563398545501
136, -18989.75, 0.00, 0.00, 0.00, 0.00, 0.00, 0.00, 0.00, 0.000, 0.000, 0.000, 17:22:25.501, 1563398545501
137, -19016.37, 0.00, 0.00, 0.00, 0.00, 0.00, 0.00, 0.00, 0.000, 0.000, 0.000, 17:22:25.501, 1563398545501
138, -18999.61, 0.00, 0.00, 0.00, 0.00, 0.00, 0.00, 0.00, 0.000, 0.000, 0.000, 17:22:25.501, 1563398545501
139, -18988.12, 0.00, 0.00, 0.00, 0.00, 0.00, 0.00, 0.00, 0.100, 0.026, 1.034, 17:22:25.501, 1563398545501
140, -19003.77, 0.00, 0.00, 0.00, 0.00, 0.00, 0.00, 0.00, 0.000, 0.000, 0.000, 17:22:25.501, 1563398545501
141, -19028.69, 0.00, 0.00, 0.00, 0.00, 0.00, 0.00, 0.00, 0.000, 0.000, 0.000, 17:22:25.501, 1563398545501
142, -19021.47, 0.00, 0.00, 0.00, 0.00, 0.00, 0.00, 0.00, 0.000, 0.000, 0.000, 17:22:25.501, 1563398545501
143, -18990.85, 0.00, 0.00, 0.00, 0.00, 0.00, 0.00, 0.00, 0.000, 0.000, 0.000, 17:22:25.501, 1563398545501
144, -18984.95, 0.00, 0.00, 0.00, 0.00, 0.00, 0.00, 0.00, 0.000, 0.000, 0.000, 17:22:25.501, 1563398545501
145, -19025.40, 0.00, 0.00, 0.00, 0.00, 0.00, 0.00, 0.00, 0.000, 0.000, 0.000, 17:22:25.501, 1563398545501
146, -19023.86, 0.00, 0.00, 0.00, 0.00, 0.00, 0.00, 0.00, 0.000, 0.000, 0.000, 17:22:25.501, 1563398545501
147, -19007.97, 0.00, 0.00, 0.00, 0.00, 0.00, 0.00, 0.00, 0.000, 0.000, 0.000, 17:22:25.501, 1563398545501
148, -18994.56, 0.00, 0.00, 0.00, 0.00, 0.00, 0.00, 0.00, 0.000, 0.000, 0.000, 17:22:25.501, 1563398545501
149, -19020.87, 0.00, 0.00, 0.00, 0.00, 0.00, 0.00, 0.00, 0.098, 0.018, 1.038, 17:22:25.501, 1563398545501
150, -19033.16, 0.00, 0.00, 0.00, 0.00, 0.00, 0.00, 0.00, 0.000, 0.000, 0.000, 17:22:25.501, 1563398545501
151, -18988.68, 0.00, 0.00, 0.00, 0.00, 0.00, 0.00, 0.00, 0.000, 0.000, 0.000, 17:22:25.501, 1563398545501
152, -18974.75, 0.00, 0.00, 0.00, 0.00, 0.00, 0.00, 0.00, 0.000, 0.000, 0.000, 17:22:25.501, 1563398545501
153, -19024.84, 0.00, 0.00, 0.00, 0.00, 0.00, 0.00, 0.00, 0.000, 0.000, 0.000, 17:22:25.501, 1563398545501
154, -19052.54, 0.00, 0.00, 0.00, 0.00, 0.00, 0.00, 0.00, 0.000, 0.000, 0.000, 17:22:25.501, 1563398545501
155, -19027.77, 0.00, 0.00, 0.00, 0.00, 0.00, 0.00, 0.00, 0.000, 0.000, 0.000, 17:22:25.502, 1563398545502
156, -18989.73, 0.00, 0.00, 0.00, 0.00, 0.00, 0.00, 0.00, 0.000, 0.000, 0.000, 17:22:25.502, 1563398545502
157, -19039.39, 0.00, 0.00, 0.00, 0.00, 0.00, 0.00, 0.00, 0.000, 0.000, 0.000, 17:22:25.502, 1563398545502
158, -19064.45, 0.00, 0.00, 0.00, 0.00, 0.00, 0.00, 0.00, 0.000, 0.000, 0.000, 17:22:25.502, 1563398545502
159, -19014.99, 0.00, 0.00, 0.00, 0.00, 0.00, 0.00, 0.00, 0.102, 0.026, 1.028, 17:22:25.502, 1563398545502
160, -18999.72, 0.00, 0.00, 0.00, 0.00, 0.00, 0.00, 0.00, 0.000, 0.000, 0.000, 17:22:25.502, 1563398545502
161, -19032.15, 0.00, 0.00, 0.00, 0.00, 0.00, 0.00, 0.00, 0.000, 0.000, 0.000, 17:22:25.502, 1563398545502
162, -19061.43, 0.00, 0.00, 0.00, 0.00, 0.00, 0.00, 0.00, 0.000, 0.000, 0.000, 17:22:25.502, 1563398545502
163, -19027.06, 0.00, 0.00, 0.00, 0.00, 0.00, 0.00, 0.00, 0.000, 0.000, 0.000, 17:22:25.502, 1563398545502
164, -19002.36, 0.00, 0.00, 0.00, 0.00, 0.00, 0.00, 0.00, 0.000, 0.000, 0.000, 17:22:25.502, 1563398545502
165, -19018.05, 0.00, 0.00, 0.00, 0.00, 0.00, 0.00, 0.00, 0.000, 0.000, 0.000, 17:22:25.502, 1563398545502
166, -19063.06, 0.00, 0.00, 0.00, 0.00, 0.00, 0.00, 0.00, 0.000, 0.000, 0.000, 17:22:25.502, 1563398545502
167, -19050.70, 0.00, 0.00, 0.00, 0.00, 0.00, 0.00, 0.00, 0.000, 0.000, 0.000, 17:22:25.502, 1563398545502
168, -18999.12, 0.00, 0.00, 0.00, 0.00, 0.00, 0.00, 0.00, 0.000, 0.000, 0.000, 17:22:25.502, 1563398545502
169, -19008.01, 0.00, 0.00, 0.00, 0.00, 0.00, 0.00, 0.00, 0.100, 0.032, 1.026, 17:22:25.502, 1563398545502
170, -19022.18, 0.00, 0.00, 0.00, 0.00, 0.00, 0.00, 0.00, 0.000, 0.000, 0.000, 17:22:25.502, 1563398545502
171, -19043.51, 0.00, 0.00, 0.00, 0.00, 0.00, 0.00, 0.00, 0.000, 0.000, 0.000, 17:22:25.502, 1563398545502
172, -19034.63, 0.00, 0.00, 0.00, 0.00, 0.00, 0.00, 0.00, 0.000, 0.000, 0.000, 17:22:25.502, 1563398545502
173, -19009.24, 0.00, 0.00, 0.00, 0.00, 0.00, 0.00, 0.00, 0.000, 0.000, 0.000, 17:22:25.502, 1563398545502
174, -19009.64, 0.00, 0.00, 0.00, 0.00, 0.00, 0.00, 0.00, 0.000, 0.000, 0.000, 17:22:25.502, 1563398545502
175, -19037.90, 0.00, 0.00, 0.00, 0.00, 0.00, 0.00, 0.00, 0.000, 0.000, 0.000, 17:22:25.502, 1563398545502
176, -19031.75, 0.00, 0.00, 0.00, 0.00, 0.00, 0.00, 0.00, 0.000, 0.000, 0.000, 17:22:25.502, 1563398545502
177, -19032.46, 0.00, 0.00, 0.00, 0.00, 0.00, 0.00, 0.00, 0.000, 0.000, 0.000, 17:22:25.502, 1563398545502
178, -19037.79, 0.00, 0.00, 0.00, 0.00, 0.00, 0.00, 0.00, 0.000, 0.000, 0.000, 17:22:25.502, 1563398545502
179, -19023.19, 0.00, 0.00, 0.00, 0.00, 0.00, 0.00, 0.00, 0.000, 0.000, 0.000, 17:22:25.502, 1563398545502
180, -19033.74, 0.00, 0.00, 0.00, 0.00, 0.00, 0.00, 0.00, 0.100, 0.022, 1.030, 17:22:25.502, 1563398545502
181, -19005.55, 0.00, 0.00, 0.00, 0.00, 0.00, 0.00, 0.00, 0.000, 0.000, 0.000, 17:22:25.502, 1563398545502
182, -19020.31, 0.00, 0.00, 0.00, 0.00, 0.00, 0.00, 0.00, 0.000, 0.000, 0.000, 17:22:25.502, 1563398545502
183, -19051.62, 0.00, 0.00, 0.00, 0.00, 0.00, 0.00, 0.00, 0.000, 0.000, 0.000, 17:22:25.502, 1563398545502
184, -19035.42, 0.00, 0.00, 0.00, 0.00, 0.00, 0.00, 0.00, 0.000, 0.000, 0.000, 17:22:25.502, 1563398545502
185, -19023.99, 0.00, 0.00, 0.00, 0.00, 0.00, 0.00, 0.00, 0.000, 0.000, 0.000, 17:22:25.502, 1563398545502
186, -19041.81, 0.00, 0.00, 0.00, 0.00, 0.00, 0.00, 0.00, 0.000, 0.000, 0.000, 17:22:25.502, 1563398545502
187, -19065.77, 0.00, 0.00, 0.00, 0.00, 0.00, 0.00, 0.00, 0.000, 0.000, 0.000, 17:22:25.503, 1563398545503
188, -19032.67, 0.00, 0.00, 0.00, 0.00, 0.00, 0.00, 0.00, 0.000, 0.000, 0.000, 17:22:25.503, 1563398545503
189, -19038.12, 0.00, 0.00, 0.00, 0.00, 0.00, 0.00, 0.00, 0.000, 0.000, 0.000, 17:22:25.503, 1563398545503
190, -19036.64, 0.00, 0.00, 0.00, 0.00, 0.00, 0.00, 0.00, 0.098, 0.026, 1.026, 17:22:25.503, 1563398545503
191, -19073.26, 0.00, 0.00, 0.00, 0.00, 0.00, 0.00, 0.00, 0.000, 0.000, 0.000, 17:22:25.503, 1563398545503
192, -19080.37, 0.00, 0.00, 0.00, 0.00, 0.00, 0.00, 0.00, 0.000, 0.000, 0.000, 17:22:25.503, 1563398545503
193, -19019.75, 0.00, 0.00, 0.00, 0.00, 0.00, 0.00, 0.00, 0.000, 0.000, 0.000, 17:22:25.503, 1563398545503
194, -19037.70, 0.00, 0.00, 0.00, 0.00, 0.00, 0.00, 0.00, 0.000, 0.000, 0.000, 17:22:25.503, 1563398545503
195, -19053.23, 0.00, 0.00, 0.00, 0.00, 0.00, 0.00, 0.00, 0.000, 0.000, 0.000, 17:22:25.503, 1563398545503
196, -19071.36, 0.00, 0.00, 0.00, 0.00, 0.00, 0.00, 0.00, 0.000, 0.000, 0.000, 17:22:25.503, 1563398545503
197, -19035.77, 0.00, 0.00, 0.00, 0.00, 0.00, 0.00, 0.00, 0.000, 0.000, 0.000, 17:22:25.503, 1563398545503
198, -19023.46, 0.00, 0.00, 0.00, 0.00, 0.00, 0.00, 0.00, 0.000, 0.000, 0.000, 17:22:25.503, 1563398545503
199, -19087.23, 0.00, 0.00, 0.00, 0.00, 0.00, 0.00, 0.00, 0.000, 0.000, 0.000, 17:22:25.503, 1563398545503
200, -19094.18, 0.00, 0.00, 0.00, 0.00, 0.00, 0.00, 0.00, 0.094, 0.026, 1.026, 17:22:25.503, 1563398545503
201, -19036.02, 0.00, 0.00, 0.00, 0.00, 0.00, 0.00, 0.00, 0.000, 0.000, 0.000, 17:22:25.503, 1563398545503
202, -19023.17, 0.00, 0.00, 0.00, 0.00, 0.00, 0.00, 0.00, 0.000, 0.000, 0.000, 17:22:25.503, 1563398545503
203, -19039.19, 0.00, 0.00, 0.00, 0.00, 0.00, 0.00, 0.00, 0.000, 0.000, 0.000, 17:22:25.503, 1563398545503
204, -19065.12, 0.00, 0.00, 0.00, 0.00, 0.00, 0.00, 0.00, 0.000, 0.000, 0.000, 17:22:25.503, 1563398545503
205, -19056.94, 0.00, 0.00, 0.00, 0.00, 0.00, 0.00, 0.00, 0.000, 0.000, 0.000, 17:22:25.503, 1563398545503
206, -19026.74, 0.00, 0.00, 0.00, 0.00, 0.00, 0.00, 0.00, 0.000, 0.000, 0.000, 17:22:25.503, 1563398545503
207, -19060.85, 0.00, 0.00, 0.00, 0.00, 0.00, 0.00, 0.00, 0.000, 0.000, 0.000, 17:22:25.503, 1563398545503
208, -19093.87, 0.00, 0.00, 0.00, 0.00, 0.00, 0.00, 0.00, 0.000, 0.000, 0.000, 17:22:25.503, 1563398545503
209, -19041.88, 0.00, 0.00, 0.00, 0.00, 0.00, 0.00, 0.00, 0.000, 0.000, 0.000, 17:22:25.503, 1563398545503
210, -19032.17, 0.00, 0.00, 0.00, 0.00, 0.00, 0.00, 0.00, 0.094, 0.028, 1.028, 17:22:25.503, 1563398545503
211, -19038.46, 0.00, 0.00, 0.00, 0.00, 0.00, 0.00, 0.00, 0.000, 0.000, 0.000, 17:22:25.504, 1563398545504
212, -19076.92, 0.00, 0.00, 0.00, 0.00, 0.00, 0.00, 0.00, 0.000, 0.000, 0.000, 17:22:25.504, 1563398545504
213, -19049.32, 0.00, 0.00, 0.00, 0.00, 0.00, 0.00, 0.00, 0.000, 0.000, 0.000, 17:22:25.504, 1563398545504
214, -19016.46, 0.00, 0.00, 0.00, 0.00, 0.00, 0.00, 0.00, 0.000, 0.000, 0.000, 17:22:25.504, 1563398545504
215, -19038.41, 0.00, 0.00, 0.00, 0.00, 0.00, 0.00, 0.00, 0.000, 0.000, 0.000, 17:22:25.504, 1563398545504
216, -19079.29, 0.00, 0.00, 0.00, 0.00, 0.00, 0.00, 0.00, 0.000, 0.000, 0.000, 17:22:25.504, 1563398545504
217, -19038.81, 0.00, 0.00, 0.00, 0.00, 0.00, 0.00, 0.00, 0.000, 0.000, 0.000, 17:22:25.504, 1563398545504
218, -19030.19, 0.00, 0.00, 0.00, 0.00, 0.00, 0.00, 0.00, 0.000, 0.000, 0.000, 17:22:25.504, 1563398545504
219, -19037.94, 0.00, 0.00, 0.00, 0.00, 0.00, 0.00, 0.00, 0.000, 0.000, 0.000, 17:22:25.504, 1563398545504
220, -19045.07, 0.00, 0.00, 0.00, 0.00, 0.00, 0.00, 0.00, 0.096, 0.030, 1.022, 17:22:25.504, 1563398545504
221, -19048.51, 0.00, 0.00, 0.00, 0.00, 0.00, 0.00, 0.00, 0.000, 0.000, 0.000, 17:22:25.504, 1563398545504
222, -19023.88, 0.00, 0.00, 0.00, 0.00, 0.00, 0.00, 0.00, 0.000, 0.000, 0.000, 17:22:25.504, 1563398545504
223, -19009.49, 0.00, 0.00, 0.00, 0.00, 0.00, 0.00, 0.00, 0.000, 0.000, 0.000, 17:22:25.504, 1563398545504
224, -19042.03, 0.00, 0.00, 0.00, 0.00, 0.00, 0.00, 0.00, 0.000, 0.000, 0.000, 17:22:25.504, 1563398545504
225, -19057.92, 0.00, 0.00, 0.00, 0.00, 0.00, 0.00, 0.00, 0.000, 0.000, 0.000, 17:22:25.982, 1563398545982
226, -19034.34, 0.00, 0.00, 0.00, 0.00, 0.00, 0.00, 0.00, 0.000, 0.000, 0.000, 17:22:25.982, 1563398545982
227, -19025.63, 0.00, 0.00, 0.00, 0.00, 0.00, 0.00, 0.00, 0.000, 0.000, 0.000, 17:22:25.982, 1563398545982
228, -19047.80, 0.00, 0.00, 0.00, 0.00, 0.00, 0.00, 0.00, 0.000, 0.000, 0.000, 17:22:25.982, 1563398545982
229, -19051.82, 0.00, 0.00, 0.00, 0.00, 0.00, 0.00, 0.00, 0.000, 0.000, 0.000, 17:22:25.982, 1563398545982
230, -19030.92, 0.00, 0.00, 0.00, 0.00, 0.00, 0.00, 0.00, 0.000, 0.000, 0.000, 17:22:25.982, 1563398545982
231, -19018.94, 0.00, 0.00, 0.00, 0.00, 0.00, 0.00, 0.00, 0.102, 0.026, 1.026, 17:22:25.982, 1563398545982
232, -19071.51, 0.00, 0.00, 0.00, 0.00, 0.00, 0.00, 0.00, 0.000, 0.000, 0.000, 17:22:25.982, 1563398545982
233, -19067.85, 0.00, 0.00, 0.00, 0.00, 0.00, 0.00, 0.00, 0.000, 0.000, 0.000, 17:22:25.982, 1563398545982
234, -19049.61, 0.00, 0.00, 0.00, 0.00, 0.00, 0.00, 0.00, 0.000, 0.000, 0.000, 17:22:25.982, 1563398545982
235, -19007.05, 0.00, 0.00, 0.00, 0.00, 0.00, 0.00, 0.00, 0.000, 0.000, 0.000, 17:22:25.982, 1563398545982
236, -19034.61, 0.00, 0.00, 0.00, 0.00, 0.00, 0.00, 0.00, 0.000, 0.000, 0.000, 17:22:25.982, 1563398545982
237, -19080.99, 0.00, 0.00, 0.00, 0.00, 0.00, 0.00, 0.00, 0.000, 0.000, 0.000, 17:22:25.982, 1563398545982
238, -19043.66, 0.00, 0.00, 0.00, 0.00, 0.00, 0.00, 0.00, 0.000, 0.000, 0.000, 17:22:25.982, 1563398545982
239, -19006.65, 0.00, 0.00, 0.00, 0.00, 0.00, 0.00, 0.00, 0.000, 0.000, 0.000, 17:22:25.982, 1563398545982
240, -19035.66, 0.00, 0.00, 0.00, 0.00, 0.00, 0.00, 0.00, 0.000, 0.000, 0.000, 17:22:25.982, 1563398545982
241, -19056.29, 0.00, 0.00, 0.00, 0.00, 0.00, 0.00, 0.00, 0.098, 0.024, 1.026, 17:22:25.982, 1563398545982
242, -19039.21, 0.00, 0.00, 0.00, 0.00, 0.00, 0.00, 0.00, 0.000, 0.000, 0.000, 17:22:25.982, 1563398545982
243, -19015.57, 0.00, 0.00, 0.00, 0.00, 0.00, 0.00, 0.00, 0.000, 0.000, 0.000, 17:22:25.982, 1563398545982
244, -19006.74, 0.00, 0.00, 0.00, 0.00, 0.00, 0.00, 0.00, 0.000, 0.000, 0.000, 17:22:25.982, 1563398545982
245, -19045.88, 0.00, 0.00, 0.00, 0.00, 0.00, 0.00, 0.00, 0.000, 0.000, 0.000, 17:22:25.982, 1563398545982
246, -19056.78, 0.00, 0.00, 0.00, 0.00, 0.00, 0.00, 0.00, 0.000, 0.000, 0.000, 17:22:25.983, 1563398545983
247, -19021.42, 0.00, 0.00, 0.00, 0.00, 0.00, 0.00, 0.00, 0.000, 0.000, 0.000, 17:22:25.983, 1563398545983
248, -19039.37, 0.00, 0.00, 0.00, 0.00, 0.00, 0.00, 0.00, 0.000, 0.000, 0.000, 17:22:25.983, 1563398545983
249, -19061.84, 0.00, 0.00, 0.00, 0.00, 0.00, 0.00, 0.00, 0.000, 0.000, 0.000, 17:22:25.983, 1563398545983
250, -19065.03, 0.00, 0.00, 0.00, 0.00, 0.00, 0.00, 0.00, 0.000, 0.000, 0.000, 17:22:25.983, 1563398545983
251, -19049.18, 0.00, 0.00, 0.00, 0.00, 0.00, 0.00, 0.00, 0.102, 0.028, 1.028, 17:22:25.983, 1563398545983
252, -19024.46, 0.00, 0.00, 0.00, 0.00, 0.00, 0.00, 0.00, 0.000, 0.000, 0.000, 17:22:25.983, 1563398545983
253, -19040.60, 0.00, 0.00, 0.00, 0.00, 0.00, 0.00, 0.00, 0.000, 0.000, 0.000, 17:22:25.983, 1563398545983
254, -19064.79, 0.00, 0.00, 0.00, 0.00, 0.00, 0.00, 0.00, 0.000, 0.000, 0.000, 17:22:25.983, 1563398545983
255, -19050.68, 0.00, 0.00, 0.00, 0.00, 0.00, 0.00, 0.00, 0.000, 0.000, 0.000, 17:22:25.983, 1563398545983
0, -19010.13, 0.00, 0.00, 0.00, 0.00, 0.00, 0.00, 0.00, 0.000, 0.000, 0.000, 17:22:25.983, 1563398545983
1, -19031.88, 0.00, 0.00, 0.00, 0.00, 0.00, 0.00, 0.00, 0.000, 0.000, 0.000, 17:22:25.983, 1563398545983
2, -19072.50, 0.00, 0.00, 0.00, 0.00, 0.00, 0.00, 0.00, 0.000, 0.000, 0.000, 17:22:25.983, 1563398545983
3, -19034.79, 0.00, 0.00, 0.00, 0.00, 0.00, 0.00, 0.00, 0.000, 0.000, 0.000, 17:22:25.983, 1563398545983
4, -18987.45, 0.00, 0.00, 0.00, 0.00, 0.00, 0.00, 0.00, 0.000, 0.000, 0.000, 17:22:25.983, 1563398545983
5, -19001.60, 0.00, 0.00, 0.00, 0.00, 0.00, 0.00, 0.00, 0.104, 0.024, 1.028, 17:22:25.983, 1563398545983
6, -19051.69, 0.00, 0.00, 0.00, 0.00, 0.00, 0.00, 0.00, 0.000, 0.000, 0.000, 17:22:25.983, 1563398545983
7, -19060.74, 0.00, 0.00, 0.00, 0.00, 0.00, 0.00, 0.00, 0.000, 0.000, 0.000, 17:22:25.983, 1563398545983
8, -18998.69, 0.00, 0.00, 0.00, 0.00, 0.00, 0.00, 0.00, 0.000, 0.000, 0.000, 17:22:25.983, 1563398545983
9, -19011.10, 0.00, 0.00, 0.00, 0.00, 0.00, 0.00, 0.00, 0.000, 0.000, 0.000, 17:22:25.983, 1563398545983
10, -19043.28, 0.00, 0.00, 0.00, 0.00, 0.00, 0.00, 0.00, 0.000, 0.000, 0.000, 17:22:25.983, 1563398545983
11, -19038.54, 0.00, 0.00, 0.00, 0.00, 0.00, 0.00, 0.00, 0.000, 0.000, 0.000, 17:22:25.983, 1563398545983
12, -19006.65, 0.00, 0.00, 0.00, 0.00, 0.00, 0.00, 0.00, 0.000, 0.000, 0.000, 17:22:25.983, 1563398545983
13, -18993.15, 0.00, 0.00, 0.00, 0.00, 0.00, 0.00, 0.00, 0.000, 0.000, 0.000, 17:22:25.983, 1563398545983
14, -19025.42, 0.00, 0.00, 0.00, 0.00, 0.00, 0.00, 0.00, 0.000, 0.000, 0.000, 17:22:25.983, 1563398545983
15, -19009.76, 0.00, 0.00, 0.00, 0.00, 0.00, 0.00, 0.00, 0.100, 0.022, 1.024, 17:22:25.983, 1563398545983
16, -18990.69, 0.00, 0.00, 0.00, 0.00, 0.00, 0.00, 0.00, 0.000, 0.000, 0.000, 17:22:25.983, 1563398545983
17, -18987.52, 0.00, 0.00, 0.00, 0.00, 0.00, 0.00, 0.00, 0.000, 0.000, 0.000, 17:22:25.983, 1563398545983
18, -19016.84, 0.00, 0.00, 0.00, 0.00, 0.00, 0.00, 0.00, 0.000, 0.000, 0.000, 17:22:25.983, 1563398545983
19, -19045.16, 0.00, 0.00, 0.00, 0.00, 0.00, 0.00, 0.00, 0.000, 0.000, 0.000, 17:22:25.983, 1563398545983
20, -19011.77, 0.00, 0.00, 0.00, 0.00, 0.00, 0.00, 0.00, 0.000, 0.000, 0.000, 17:22:25.983, 1563398545983
21, -18990.40, 0.00, 0.00, 0.00, 0.00, 0.00, 0.00, 0.00, 0.000, 0.000, 0.000, 17:22:25.983, 1563398545983
22, -19019.30, 0.00, 0.00, 0.00, 0.00, 0.00, 0.00, 0.00, 0.000, 0.000, 0.000, 17:22:25.983, 1563398545983
23, -19009.71, 0.00, 0.00, 0.00, 0.00, 0.00, 0.00, 0.00, 0.000, 0.000, 0.000, 17:22:25.984, 1563398545984
24, -19002.87, 0.00, 0.00, 0.00, 0.00, 0.00, 0.00, 0.00, 0.000, 0.000, 0.000, 17:22:25.984, 1563398545984
25, -18982.38, 0.00, 0.00, 0.00, 0.00, 0.00, 0.00, 0.00, 0.104, 0.022, 1.026, 17:22:25.984, 1563398545984
26, -19015.43, 0.00, 0.00, 0.00, 0.00, 0.00, 0.00, 0.00, 0.000, 0.000, 0.000, 17:22:25.984, 1563398545984
27, -19029.60, 0.00, 0.00, 0.00, 0.00, 0.00, 0.00, 0.00, 0.000, 0.000, 0.000, 17:22:25.984, 1563398545984
28, -19005.73, 0.00, 0.00, 0.00, 0.00, 0.00, 0.00, 0.00, 0.000, 0.000, 0.000, 17:22:25.984, 1563398545984
29, -18986.15, 0.00, 0.00, 0.00, 0.00, 0.00, 0.00, 0.00, 0.000, 0.000, 0.000, 17:22:25.984, 1563398545984
30, -18996.61, 0.00, 0.00, 0.00, 0.00, 0.00, 0.00, 0.00, 0.000, 0.000, 0.000, 17:22:25.984, 1563398545984
31, -19006.49, 0.00, 0.00, 0.00, 0.00, 0.00, 0.00, 0.00, 0.000, 0.000, 0.000, 17:22:25.984, 1563398545984
32, -19007.90, 0.00, 0.00, 0.00, 0.00, 0.00, 0.00, 0.00, 0.000, 0.000, 0.000, 17:22:25.984, 1563398545984
33, -18981.46, 0.00, 0.00, 0.00, 0.00, 0.00, 0.00, 0.00, 0.000, 0.000, 0.000, 17:22:25.984, 1563398545984
34, -18988.39, 0.00, 0.00, 0.00, 0.00, 0.00, 0.00, 0.00, 0.000, 0.000, 0.000, 17:22:25.984, 1563398545984
35, -19028.73, 0.00, 0.00, 0.00, 0.00, 0.00, 0.00, 0.00, 0.000, 0.000, 0.000, 17:22:25.984, 1563398545984
36, -19019.17, 0.00, 0.00, 0.00, 0.00, 0.00, 0.00, 0.00, 0.102, 0.022, 1.024, 17:22:25.984, 1563398545984
37, -18990.31, 0.00, 0.00, 0.00, 0.00, 0.00, 0.00, 0.00, 0.000, 0.000, 0.000, 17:22:25.984, 1563398545984
38, -18992.95, 0.00, 0.00, 0.00, 0.00, 0.00, 0.00, 0.00, 0.000, 0.000, 0.000, 17:22:25.984, 1563398545984
39, -19013.13, 0.00, 0.00, 0.00, 0.00, 0.00, 0.00, 0.00, 0.000, 0.000, 0.000, 17:22:25.984, 1563398545984
40, -19028.31, 0.00, 0.00, 0.00, 0.00, 0.00, 0.00, 0.00, 0.000, 0.000, 0.000, 17:22:25.984, 1563398545984
41, -18974.89, 0.00, 0.00, 0.00, 0.00, 0.00, 0.00, 0.00, 0.000, 0.000, 0.000, 17:22:25.984, 1563398545984
42, -18954.95, 0.00, 0.00, 0.00, 0.00, 0.00, 0.00, 0.00, 0.000, 0.000, 0.000, 17:22:25.984, 1563398545984
43, -18964.27, 0.00, 0.00, 0.00, 0.00, 0.00, 0.00, 0.00, 0.000, 0.000, 0.000, 17:22:25.984, 1563398545984
44, -19024.62, 0.00, 0.00, 0.00, 0.00, 0.00, 0.00, 0.00, 0.000, 0.000, 0.000, 17:22:25.984, 1563398545984
45, -19017.73, 0.00, 0.00, 0.00, 0.00, 0.00, 0.00, 0.00, 0.000, 0.000, 0.000, 17:22:25.984, 1563398545984
46, -18998.56, 0.00, 0.00, 0.00, 0.00, 0.00, 0.00, 0.00, 0.106, 0.026, 1.030, 17:22:25.984, 1563398545984
47, -19042.46, 0.00, 0.00, 0.00, 0.00, 0.00, 0.00, 0.00, 0.000, 0.000, 0.000, 17:22:25.984, 1563398545984
48, -19021.87, 0.00, 0.00, 0.00, 0.00, 0.00, 0.00, 0.00, 0.000, 0.000, 0.000, 17:22:25.984, 1563398545984
49, -18962.53, 0.00, 0.00, 0.00, 0.00, 0.00, 0.00, 0.00, 0.000, 0.000, 0.000, 17:22:25.984, 1563398545984
50, -19018.67, 0.00, 0.00, 0.00, 0.00, 0.00, 0.00, 0.00, 0.000, 0.000, 0.000, 17:22:25.984, 1563398545984
51, -19029.09, 0.00, 0.00, 0.00, 0.00, 0.00, 0.00, 0.00, 0.000, 0.000, 0.000, 17:22:25.984, 1563398545984
52, -19017.91, 0.00, 0.00, 0.00, 0.00, 0.00, 0.00, 0.00, 0.000, 0.000, 0.000, 17:22:25.984, 1563398545984
53, -19000.19, 0.00, 0.00, 0.00, 0.00, 0.00, 0.00, 0.00, 0.000, 0.000, 0.000, 17:22:25.984, 1563398545984
54, -18989.64, 0.00, 0.00, 0.00, 0.00, 0.00, 0.00, 0.00, 0.000, 0.000, 0.000, 17:22:25.984, 1563398545984
55, -19007.77, 0.00, 0.00, 0.00, 0.00, 0.00, 0.00, 0.00, 0.000, 0.000, 0.000, 17:22:25.985, 1563398545985
56, -19049.09, 0.00, 0.00, 0.00, 0.00, 0.00, 0.00, 0.00, 0.104, 0.026, 1.036, 17:22:25.985, 1563398545985
57, -19029.76, 0.00, 0.00, 0.00, 0.00, 0.00, 0.00, 0.00, 0.000, 0.000, 0.000, 17:22:25.985, 1563398545985
58, -19018.03, 0.00, 0.00, 0.00, 0.00, 0.00, 0.00, 0.00, 0.000, 0.000, 0.000, 17:22:25.985, 1563398545985
59, -18990.38, 0.00, 0.00, 0.00, 0.00, 0.00, 0.00, 0.00, 0.000, 0.000, 0.000, 17:22:25.985, 1563398545985
60, -18983.72, 0.00, 0.00, 0.00, 0.00, 0.00, 0.00, 0.00, 0.000, 0.000, 0.000, 17:22:25.985, 1563398545985
61, -19039.97, 0.00, 0.00, 0.00, 0.00, 0.00, 0.00, 0.00, 0.000, 0.000, 0.000, 17:22:25.985, 1563398545985
62, -19013.80, 0.00, 0.00, 0.00, 0.00, 0.00, 0.00, 0.00, 0.000, 0.000, 0.000, 17:22:25.985, 1563398545985
63, -19001.60, 0.00, 0.00, 0.00, 0.00, 0.00, 0.00, 0.00, 0.000, 0.000, 0.000, 17:22:25.985, 1563398545985
64, -19001.55, 0.00, 0.00, 0.00, 0.00, 0.00, 0.00, 0.00, 0.000, 0.000, 0.000, 17:22:25.985, 1563398545985
65, -19022.50, 0.00, 0.00, 0.00, 0.00, 0.00, 0.00, 0.00, 0.000, 0.000, 0.000, 17:22:25.985, 1563398545985
66, -18990.13, 0.00, 0.00, 0.00, 0.00, 0.00, 0.00, 0.00, 0.100, 0.026, 1.020, 17:22:25.985, 1563398545985
67, -18980.63, 0.00, 0.00, 0.00, 0.00, 0.00, 0.00, 0.00, 0.000, 0.000, 0.000, 17:22:25.985, 1563398545985
68, -18984.77, 0.00, 0.00, 0.00, 0.00, 0.00, 0.00, 0.00, 0.000, 0.000, 0.000, 17:22:25.985, 1563398545985
69, -18994.94, 0.00, 0.00, 0.00, 0.00, 0.00, 0.00, 0.00, 0.000, 0.000, 0.000, 17:22:25.985, 1563398545985
70, -18997.02, 0.00, 0.00, 0.00, 0.00, 0.00, 0.00, 0.00, 0.000, 0.000, 0.000, 17:22:25.985, 1563398545985
71, -18982.53, 0.00, 0.00, 0.00, 0.00, 0.00, 0.00, 0.00, 0.000, 0.000, 0.000, 17:22:25.985, 1563398545985
72, -19012.19, 0.00, 0.00, 0.00, 0.00, 0.00, 0.00, 0.00, 0.000, 0.000, 0.000, 17:22:25.985, 1563398545985
73, -19005.02, 0.00, 0.00, 0.00, 0.00, 0.00, 0.00, 0.00, 0.000, 0.000, 0.000, 17:22:25.985, 1563398545985
74, -18982.53, 0.00, 0.00, 0.00, 0.00, 0.00, 0.00, 0.00, 0.000, 0.000, 0.000, 17:22:25.985, 1563398545985
75, -18986.80, 0.00, 0.00, 0.00, 0.00, 0.00, 0.00, 0.00, 0.000, 0.000, 0.000, 17:22:25.985, 1563398545985
76, -18981.35, 0.00, 0.00, 0.00, 0.00, 0.00, 0.00, 0.00, 0.096, 0.024, 1.022, 17:22:25.985, 1563398545985
77, -19005.93, 0.00, 0.00, 0.00, 0.00, 0.00, 0.00, 0.00, 0.000, 0.000, 0.000, 17:22:25.985, 1563398545985
78, -19016.48, 0.00, 0.00, 0.00, 0.00, 0.00, 0.00, 0.00, 0.000, 0.000, 0.000, 17:22:25.985, 1563398545985
79, -18966.51, 0.00, 0.00, 0.00, 0.00, 0.00, 0.00, 0.00, 0.000, 0.000, 0.000, 17:22:25.985, 1563398545985
80, -18973.63, 0.00, 0.00, 0.00, 0.00, 0.00, 0.00, 0.00, 0.000, 0.000, 0.000, 17:22:25.985, 1563398545985
81, -18999.27, 0.00, 0.00, 0.00, 0.00, 0.00, 0.00, 0.00, 0.000, 0.000, 0.000, 17:22:25.985, 1563398545985
82, -18995.34, 0.00, 0.00, 0.00, 0.00, 0.00, 0.00, 0.00, 0.000, 0.000, 0.000, 17:22:25.985, 1563398545985
83, -18974.55, 0.00, 0.00, 0.00, 0.00, 0.00, 0.00, 0.00, 0.000, 0.000, 0.000, 17:22:25.985, 1563398545985
84, -18973.08, 0.00, 0.00, 0.00, 0.00, 0.00, 0.00, 0.00, 0.000, 0.000, 0.000, 17:22:25.985, 1563398545985
85, -19013.67, 0.00, 0.00, 0.00, 0.00, 0.00, 0.00, 0.00, 0.000, 0.000, 0.000, 17:22:25.985, 1563398545985
86, -19001.75, 0.00, 0.00, 0.00, 0.00, 0.00, 0.00, 0.00, 0.000, 0.000, 0.000, 17:22:25.986, 1563398545986
87, -18971.49, 0.00, 0.00, 0.00, 0.00, 0.00, 0.00, 0.00, 0.094, 0.020, 1.028, 17:22:25.986, 1563398545986
88, -18983.94, 0.00, 0.00, 0.00, 0.00, 0.00, 0.00, 0.00, 0.000, 0.000, 0.000, 17:22:25.986, 1563398545986
89, -18993.97, 0.00, 0.00, 0.00, 0.00, 0.00, 0.00, 0.00, 0.000, 0.000, 0.000, 17:22:25.986, 1563398545986
90, -19001.42, 0.00, 0.00, 0.00, 0.00, 0.00, 0.00, 0.00, 0.000, 0.000, 0.000, 17:22:26.463, 1563398546463
91, -18969.16, 0.00, 0.00, 0.00, 0.00, 0.00, 0.00, 0.00, 0.000, 0.000, 0.000, 17:22:26.463, 1563398546463
92, -18963.22, 0.00, 0.00, 0.00, 0.00, 0.00, 0.00, 0.00, 0.000, 0.000, 0.000, 17:22:26.463, 1563398546463
93, -18988.28, 0.00, 0.00, 0.00, 0.00, 0.00, 0.00, 0.00, 0.000, 0.000, 0.000, 17:22:26.463, 1563398546463
94, -18995.81, 0.00, 0.00, 0.00, 0.00, 0.00, 0.00, 0.00, 0.000, 0.000, 0.000, 17:22:26.463, 1563398546463
95, -18961.10, 0.00, 0.00, 0.00, 0.00, 0.00, 0.00, 0.00, 0.000, 0.000, 0.000, 17:22:26.463, 1563398546463
96, -18919.86, 0.00, 0.00, 0.00, 0.00, 0.00, 0.00, 0.00, 0.000, 0.000, 0.000, 17:22:26.463, 1563398546463
97, -18989.62, 0.00, 0.00, 0.00, 0.00, 0.00, 0.00, 0.00, 0.096, 0.026, 1.032, 17:22:26.463, 1563398546463
98, -18992.97, 0.00, 0.00, 0.00, 0.00, 0.00, 0.00, 0.00, 0.000, 0.000, 0.000, 17:22:26.464, 1563398546464
99, -18963.71, 0.00, 0.00, 0.00, 0.00, 0.00, 0.00, 0.00, 0.000, 0.000, 0.000, 17:22:26.464, 1563398546464
100, -18929.78, 0.00, 0.00, 0.00, 0.00, 0.00, 0.00, 0.00, 0.000, 0.000, 0.000, 17:22:26.464, 1563398546464
101, -18939.55, 0.00, 0.00, 0.00, 0.00, 0.00, 0.00, 0.00, 0.000, 0.000, 0.000, 17:22:26.464, 1563398546464
102, -18988.57, 0.00, 0.00, 0.00, 0.00, 0.00, 0.00, 0.00, 0.000, 0.000, 0.000, 17:22:26.464, 1563398546464
103, -18942.59, 0.00, 0.00, 0.00, 0.00, 0.00, 0.00, 0.00, 0.000, 0.000, 0.000, 17:22:26.464, 1563398546464
104, -18910.74, 0.00, 0.00, 0.00, 0.00, 0.00, 0.00, 0.00, 0.000, 0.000, 0.000, 17:22:26.464, 1563398546464
105, -18932.35, 0.00, 0.00, 0.00, 0.00, 0.00, 0.00, 0.00, 0.000, 0.000, 0.000, 17:22:26.464, 1563398546464
106, -18962.50, 0.00, 0.00, 0.00, 0.00, 0.00, 0.00, 0.00, 0.000, 0.000, 0.000, 17:22:26.464, 1563398546464
107, -19002.45, 0.00, 0.00, 0.00, 0.00, 0.00, 0.00, 0.00, 0.098, 0.026, 1.032, 17:22:26.464, 1563398546464
108, -18913.33, 0.00, 0.00, 0.00, 0.00, 0.00, 0.00, 0.00, 0.000, 0.000, 0.000, 17:22:26.464, 1563398546464
109, -18925.47, 0.00, 0.00, 0.00, 0.00, 0.00, 0.00, 0.00, 0.000, 0.000, 0.000, 17:22:26.464, 1563398546464
110, -18969.99, 0.00, 0.00, 0.00, 0.00, 0.00, 0.00, 0.00, 0.000, 0.000, 0.000, 17:22:26.464, 1563398546464
111, -18967.62, 0.00, 0.00, 0.00, 0.00, 0.00, 0.00, 0.00, 0.000, 0.000, 0.000, 17:22:26.464, 1563398546464
112, -18915.41, 0.00, 0.00, 0.00, 0.00, 0.00, 0.00, 0.00, 0.000, 0.000, 0.000, 17:22:26.464, 1563398546464
113, -18934.99, 0.00, 0.00, 0.00, 0.00, 0.00, 0.00, 0.00, 0.000, 0.000, 0.000, 17:22:26.464, 1563398546464
114, -18944.29, 0.00, 0.00, 0.00, 0.00, 0.00, 0.00, 0.00, 0.000, 0.000, 0.000, 17:22:26.464, 1563398546464
115, -18945.36, 0.00, 0.00, 0.00, 0.00, 0.00, 0.00, 0.00, 0.000, 0.000, 0.000, 17:22:26.464, 1563398546464
116, -18896.54, 0.00, 0.00, 0.00, 0.00, 0.00, 0.00, 0.00, 0.000, 0.000, 0.000, 17:22:26.464, 1563398546464
117, -18910.49, 0.00, 0.00, 0.00, 0.00, 0.00, 0.00, 0.00, 0.096, 0.024, 1.024, 17:22:26.464, 1563398546464
118, -18963.78, 0.00, 0.00, 0.00, 0.00, 0.00, 0.00, 0.00, 0.000, 0.000, 0.000, 17:22:26.464, 1563398546464
119, -18973.03, 0.00, 0.00, 0.00, 0.00, 0.00, 0.00, 0.00, 0.000, 0.000, 0.000, 17:22:26.464, 1563398546464
120, -18951.39, 0.00, 0.00, 0.00, 0.00, 0.00, 0.00, 0.00, 0.000, 0.000, 0.000, 17:22:26.464, 1563398546464
121, -18927.84, 0.00, 0.00, 0.00, 0.00, 0.00, 0.00, 0.00, 0.000, 0.000, 0.000, 17:22:26.464, 1563398546464
122, -18918.98, 0.00, 0.00, 0.00, 0.00, 0.00, 0.00, 0.00, 0.000, 0.000, 0.000, 17:22:26.464, 1563398546464
123, -18960.22, 0.00, 0.00, 0.00, 0.00, 0.00, 0.00, 0.00, 0.000, 0.000, 0.000, 17:22:26.464, 1563398546464
124, -18955.53, 0.00, 0.00, 0.00, 0.00, 0.00, 0.00, 0.00, 0.000, 0.000, 0.000, 17:22:26.464, 1563398546464
125, -18914.31, 0.00, 0.00, 0.00, 0.00, 0.00, 0.00, 0.00, 0.000, 0.000, 0.000, 17:22:26.464, 1563398546464
126, -18916.04, 0.00, 0.00, 0.00, 0.00, 0.00, 0.00, 0.00, 0.000, 0.000, 0.000, 17:22:26.464, 1563398546464
127, -18947.95, 0.00, 0.00, 0.00, 0.00, 0.00, 0.00, 0.00, 0.098, 0.028, 1.026, 17:22:26.464, 1563398546464
128, -18926.72, 0.00, 0.00, 0.00, 0.00, 0.00, 0.00, 0.00, 0.000, 0.000, 0.000, 17:22:26.464, 1563398546464
129, -18899.32, 0.00, 0.00, 0.00, 0.00, 0.00, 0.00, 0.00, 0.000, 0.000, 0.000, 17:22:26.464, 1563398546464
130, -18915.77, 0.00, 0.00, 0.00, 0.00, 0.00, 0.00, 0.00, 0.000, 0.000, 0.000, 17:22:26.464, 1563398546464
131, -18944.87, 0.00, 0.00, 0.00, 0.00, 0.00, 0.00, 0.00, 0.000, 0.000, 0.000, 17:22:26.464, 1563398546464
132, -18950.17, 0.00, 0.00, 0.00, 0.00, 0.00, 0.00, 0.00, 0.000, 0.000, 0.000, 17:22:26.465, 1563398546465
133, -18921.33, 0.00, 0.00, 0.00, 0.00, 0.00, 0.00, 0.00, 0.000, 0.000, 0.000, 17:22:26.465, 1563398546465
134, -18929.85, 0.00, 0.00, 0.00, 0.00, 0.00, 0.00, 0.00, 0.000, 0.000, 0.000, 17:22:26.465, 1563398546465
135, -18923.63, 0.00, 0.00, 0.00, 0.00, 0.00, 0.00, 0.00, 0.000, 0.000, 0.000, 17:22:26.465, 1563398546465
136, -18945.25, 0.00, 0.00, 0.00, 0.00, 0.00, 0.00, 0.00, 0.000, 0.000, 0.000, 17:22:26.465, 1563398546465
137, -18906.47, 0.00, 0.00, 0.00, 0.00, 0.00, 0.00, 0.00, 0.102, 0.016, 1.030, 17:22:26.465, 1563398546465
138, -18899.76, 0.00, 0.00, 0.00, 0.00, 0.00, 0.00, 0.00, 0.000, 0.000, 0.000, 17:22:26.465, 1563398546465
139, -18929.02, 0.00, 0.00, 0.00, 0.00, 0.00, 0.00, 0.00, 0.000, 0.000, 0.000, 17:22:26.465, 1563398546465
140, -18943.53, 0.00, 0.00, 0.00, 0.00, 0.00, 0.00, 0.00, 0.000, 0.000, 0.000, 17:22:26.465, 1563398546465
141, -18907.88, 0.00, 0.00, 0.00, 0.00, 0.00, 0.00, 0.00, 0.000, 0.000, 0.000, 17:22:26.465, 1563398546465
142, -18915.36, 0.00, 0.00, 0.00, 0.00, 0.00, 0.00, 0.00, 0.000, 0.000, 0.000, 17:22:26.465, 1563398546465
143, -18942.75, 0.00, 0.00, 0.00, 0.00, 0.00, 0.00, 0.00, 0.000, 0.000, 0.000, 17:22:26.465, 1563398546465
144, -18931.05, 0.00, 0.00, 0.00, 0.00, 0.00, 0.00, 0.00, 0.000, 0.000, 0.000, 17:22:26.465, 1563398546465
145, -18898.71, 0.00, 0.00, 0.00, 0.00, 0.00, 0.00, 0.00, 0.000, 0.000, 0.000, 17:22:26.465, 1563398546465
146, -18899.03, 0.00, 0.00, 0.00, 0.00, 0.00, 0.00, 0.00, 0.000, 0.000, 0.000, 17:22:26.465, 1563398546465
147, -18900.70, 0.00, 0.00, 0.00, 0.00, 0.00, 0.00, 0.00, 0.000, 0.000, 0.000, 17:22:26.465, 1563398546465
148, -18916.82, 0.00, 0.00, 0.00, 0.00, 0.00, 0.00, 0.00, 0.108, 0.018, 1.028, 17:22:26.465, 1563398546465
149, -18917.55, 0.00, 0.00, 0.00, 0.00, 0.00, 0.00, 0.00, 0.000, 0.000, 0.000, 17:22:26.465, 1563398546465
150, -18902.80, 0.00, 0.00, 0.00, 0.00, 0.00, 0.00, 0.00, 0.000, 0.000, 0.000, 17:22:26.465, 1563398546465
151, -18889.73, 0.00, 0.00, 0.00, 0.00, 0.00, 0.00, 0.00, 0.000, 0.000, 0.000, 17:22:26.465, 1563398546465
152, -18895.78, 0.00, 0.00, 0.00, 0.00, 0.00, 0.00, 0.00, 0.000, 0.000, 0.000, 17:22:26.465, 1563398546465
153, -18909.20, 0.00, 0.00, 0.00, 0.00, 0.00, 0.00, 0.00, 0.000, 0.000, 0.000, 17:22:26.465, 1563398546465
154, -18878.42, 0.00, 0.00, 0.00, 0.00, 0.00, 0.00, 0.00, 0.000, 0.000, 0.000, 17:22:26.465, 1563398546465
155, -18899.34, 0.00, 0.00, 0.00, 0.00, 0.00, 0.00, 0.00, 0.000, 0.000, 0.000, 17:22:26.465, 1563398546465
156, -18922.90, 0.00, 0.00, 0.00, 0.00, 0.00, 0.00, 0.00, 0.000, 0.000, 0.000, 17:22:26.465, 1563398546465
157, -18920.01, 0.00, 0.00, 0.00, 0.00, 0.00, 0.00, 0.00, 0.000, 0.000, 0.000, 17:22:26.465, 1563398546465
158, -18896.81, 0.00, 0.00, 0.00, 0.00, 0.00, 0.00, 0.00, 0.102, 0.020, 1.028, 17:22:26.465, 1563398546465
159, -18887.13, 0.00, 0.00, 0.00, 0.00, 0.00, 0.00, 0.00, 0.000, 0.000, 0.000, 17:22:26.465, 1563398546465
160, -18905.60, 0.00, 0.00, 0.00, 0.00, 0.00, 0.00, 0.00, 0.000, 0.000, 0.000, 17:22:26.465, 1563398546465
161, -18904.75, 0.00, 0.00, 0.00, 0.00, 0.00, 0.00, 0.00, 0.000, 0.000, 0.000, 17:22:26.465, 1563398546465
162, -18890.15, 0.00, 0.00, 0.00, 0.00, 0.00, 0.00, 0.00, 0.000, 0.000, 0.000, 17:22:26.465, 1563398546465
163, -18886.17, 0.00, 0.00, 0.00, 0.00, 0.00, 0.00, 0.00, 0.000, 0.000, 0.000, 17:22:26.465, 1563398546465
164, -18906.92, 0.00, 0.00, 0.00, 0.00, 0.00, 0.00, 0.00, 0.000, 0.000, 0.000, 17:22:26.465, 1563398546465
165, -18916.93, 0.00, 0.00, 0.00, 0.00, 0.00, 0.00, 0.00, 0.000, 0.000, 0.000, 17:22:26.466, 1563398546466
166, -18895.70, 0.00, 0.00, 0.00, 0.00, 0.00, 0.00, 0.00, 0.000, 0.000, 0.000, 17:22:26.466, 1563398546466
167, -18889.44, 0.00, 0.00, 0.00, 0.00, 0.00, 0.00, 0.00, 0.000, 0.000, 0.000, 17:22:26.466, 1563398546466
168, -18898.89, 0.00, 0.00, 0.00, 0.00, 0.00, 0.00, 0.00, 0.098, 0.018, 1.026, 17:22:26.466, 1563398546466
169, -18901.15, 0.00, 0.00, 0.00, 0.00, 0.00, 0.00, 0.00, 0.000, 0.000, 0.000, 17:22:26.466, 1563398546466
170, -18892.01, 0.00, 0.00, 0.00, 0.00, 0.00, 0.00, 0.00, 0.000, 0.000, 0.000, 17:22:26.466, 1563398546466
171, -18889.82, 0.00, 0.00, 0.00, 0.00, 0.00, 0.00, 0.00, 0.000, 0.000, 0.000, 17:22:26.466, 1563398546466
172, -18903.00, 0.00, 0.00, 0.00, 0.00, 0.00, 0.00, 0.00, 0.000, 0.000, 0.000, 17:22:26.466, 1563398546466
173, -18898.15, 0.00, 0.00, 0.00, 0.00, 0.00, 0.00, 0.00, 0.000, 0.000, 0.000, 17:22:26.466, 1563398546466
174, -18865.90, 0.00, 0.00, 0.00, 0.00, 0.00, 0.00, 0.00, 0.000, 0.000, 0.000, 17:22:26.466, 1563398546466
175, -18853.45, 0.00, 0.00, 0.00, 0.00, 0.00, 0.00, 0.00, 0.000, 0.000, 0.000, 17:22:26.466, 1563398546466
176, -18881.39, 0.00, 0.00, 0.00, 0.00, 0.00, 0.00, 0.00, 0.000, 0.000, 0.000, 17:22:26.466, 1563398546466
177, -18902.62, 0.00, 0.00, 0.00, 0.00, 0.00, 0.00, 0.00, 0.000, 0.000, 0.000, 17:22:26.466, 1563398546466
178, -18882.08, 0.00, 0.00, 0.00, 0.00, 0.00, 0.00, 0.00, 0.100, 0.024, 1.030, 17:22:26.466, 1563398546466
179, -18853.56, 0.00, 0.00, 0.00, 0.00, 0.00, 0.00, 0.00, 0.000, 0.000, 0.000, 17:22:26.466, 1563398546466
180, -18864.92, 0.00, 0.00, 0.00, 0.00, 0.00, 0.00, 0.00, 0.000, 0.000, 0.000, 17:22:26.466, 1563398546466
181, -18877.66, 0.00, 0.00, 0.00, 0.00, 0.00, 0.00, 0.00, 0.000, 0.000, 0.000, 17:22:26.466, 1563398546466
182, -18858.26, 0.00, 0.00, 0.00, 0.00, 0.00, 0.00, 0.00, 0.000, 0.000, 0.000, 17:22:26.466, 1563398546466
183, -18838.03, 0.00, 0.00, 0.00, 0.00, 0.00, 0.00, 0.00, 0.000, 0.000, 0.000, 17:22:26.466, 1563398546466
184, -18841.94, 0.00, 0.00, 0.00, 0.00, 0.00, 0.00, 0.00, 0.000, 0.000, 0.000, 17:22:26.466, 1563398546466
185, -18854.10, 0.00, 0.00, 0.00, 0.00, 0.00, 0.00, 0.00, 0.000, 0.000, 0.000, 17:22:26.466, 1563398546466
186, -18858.03, 0.00, 0.00, 0.00, 0.00, 0.00, 0.00, 0.00, 0.000, 0.000, 0.000, 17:22:26.466, 1563398546466
187, -18836.35, 0.00, 0.00, 0.00, 0.00, 0.00, 0.00, 0.00, 0.000, 0.000, 0.000, 17:22:26.466, 1563398546466
188, -18848.33, 0.00, 0.00, 0.00, 0.00, 0.00, 0.00, 0.00, 0.102, 0.020, 1.028, 17:22:26.466, 1563398546466
189, -18877.21, 0.00, 0.00, 0.00, 0.00, 0.00, 0.00, 0.00, 0.000, 0.000, 0.000, 17:22:26.466, 1563398546466
190, -18888.61, 0.00, 0.00, 0.00, 0.00, 0.00, 0.00, 0.00, 0.000, 0.000, 0.000, 17:22:26.466, 1563398546466
191, -18852.87, 0.00, 0.00, 0.00, 0.00, 0.00, 0.00, 0.00, 0.000, 0.000, 0.000, 17:22:26.466, 1563398546466
192, -18842.23, 0.00, 0.00, 0.00, 0.00, 0.00, 0.00, 0.00, 0.000, 0.000, 0.000, 17:22:26.466, 1563398546466
193, -18847.62, 0.00, 0.00, 0.00, 0.00, 0.00, 0.00, 0.00, 0.000, 0.000, 0.000, 17:22:26.466, 1563398546466
194, -18854.79, 0.00, 0.00, 0.00, 0.00, 0.00, 0.00, 0.00, 0.000, 0.000, 0.000, 17:22:26.466, 1563398546466
195, -18848.85, 0.00, 0.00, 0.00, 0.00, 0.00, 0.00, 0.00, 0.000, 0.000, 0.000, 17:22:26.467, 1563398546467
196, -18835.68, 0.00, 0.00, 0.00, 0.00, 0.00, 0.00, 0.00, 0.000, 0.000, 0.000, 17:22:26.467, 1563398546467
197, -18862.50, 0.00, 0.00, 0.00, 0.00, 0.00, 0.00, 0.00, 0.000, 0.000, 0.000, 17:22:26.467, 1563398546467
198, -18878.69, 0.00, 0.00, 0.00, 0.00, 0.00, 0.00, 0.00, 0.000, 0.000, 0.000, 17:22:26.467, 1563398546467
199, -18856.04, 0.00, 0.00, 0.00, 0.00, 0.00, 0.00, 0.00, 0.104, 0.022, 1.020, 17:22:26.467, 1563398546467
200, -18821.31, 0.00, 0.00, 0.00, 0.00, 0.00, 0.00, 0.00, 0.000, 0.000, 0.000, 17:22:26.467, 1563398546467
201, -18836.73, 0.00, 0.00, 0.00, 0.00, 0.00, 0.00, 0.00, 0.000, 0.000, 0.000, 17:22:26.467, 1563398546467
202, -18862.14, 0.00, 0.00, 0.00, 0.00, 0.00, 0.00, 0.00, 0.000, 0.000, 0.000, 17:22:26.467, 1563398546467
203, -18861.63, 0.00, 0.00, 0.00, 0.00, 0.00, 0.00, 0.00, 0.000, 0.000, 0.000, 17:22:26.467, 1563398546467
204, -18818.80, 0.00, 0.00, 0.00, 0.00, 0.00, 0.00, 0.00, 0.000, 0.000, 0.000, 17:22:26.467, 1563398546467
205, -18809.44, 0.00, 0.00, 0.00, 0.00, 0.00, 0.00, 0.00, 0.000, 0.000, 0.000, 17:22:26.467, 1563398546467
206, -18835.10, 0.00, 0.00, 0.00, 0.00, 0.00, 0.00, 0.00, 0.000, 0.000, 0.000, 17:22:26.467, 1563398546467
207, -18872.63, 0.00, 0.00, 0.00, 0.00, 0.00, 0.00, 0.00, 0.000, 0.000, 0.000, 17:22:26.467, 1563398546467
208, -18831.32, 0.00, 0.00, 0.00, 0.00, 0.00, 0.00, 0.00, 0.000, 0.000, 0.000, 17:22:26.467, 1563398546467
209, -18840.82, 0.00, 0.00, 0.00, 0.00, 0.00, 0.00, 0.00, 0.098, 0.022, 1.024, 17:22:26.467, 1563398546467
210, -18865.45, 0.00, 0.00, 0.00, 0.00, 0.00, 0.00, 0.00, 0.000, 0.000, 0.000, 17:22:26.943, 1563398546943
211, -18819.43, 0.00, 0.00, 0.00, 0.00, 0.00, 0.00, 0.00, 0.000, 0.000, 0.000, 17:22:26.943, 1563398546943
212, -18798.44, 0.00, 0.00, 0.00, 0.00, 0.00, 0.00, 0.00, 0.000, 0.000, 0.000, 17:22:26.943, 1563398546943
213, -18825.67, 0.00, 0.00, 0.00, 0.00, 0.00, 0.00, 0.00, 0.000, 0.000, 0.000, 17:22:26.943, 1563398546943
214, -18871.06, 0.00, 0.00, 0.00, 0.00, 0.00, 0.00, 0.00, 0.000, 0.000, 0.000, 17:22:26.943, 1563398546943
215, -18874.35, 0.00, 0.00, 0.00, 0.00, 0.00, 0.00, 0.00, 0.000, 0.000, 0.000, 17:22:26.943, 1563398546943
216, -18829.38, 0.00, 0.00, 0.00, 0.00, 0.00, 0.00, 0.00, 0.000, 0.000, 0.000, 17:22:26.943, 1563398546943
217, -18806.00, 0.00, 0.00, 0.00, 0.00, 0.00, 0.00, 0.00, 0.000, 0.000, 0.000, 17:22:26.943, 1563398546943
218, -18840.02, 0.00, 0.00, 0.00, 0.00, 0.00, 0.00, 0.00, 0.000, 0.000, 0.000, 17:22:26.943, 1563398546943
219, -18854.54, 0.00, 0.00, 0.00, 0.00, 0.00, 0.00, 0.00, 0.094, 0.024, 1.028, 17:22:26.943, 1563398546943
220, -18828.82, 0.00, 0.00, 0.00, 0.00, 0.00, 0.00, 0.00, 0.000, 0.000, 0.000, 17:22:26.943, 1563398546943
221, -18830.38, 0.00, 0.00, 0.00, 0.00, 0.00, 0.00, 0.00, 0.000, 0.000, 0.000, 17:22:26.943, 1563398546943
222, -18846.92, 0.00, 0.00, 0.00, 0.00, 0.00, 0.00, 0.00, 0.000, 0.000, 0.000, 17:22:26.943, 1563398546943
223, -18860.31, 0.00, 0.00, 0.00, 0.00, 0.00, 0.00, 0.00, 0.000, 0.000, 0.000, 17:22:26.943, 1563398546943
224, -18826.92, 0.00, 0.00, 0.00, 0.00, 0.00, 0.00, 0.00, 0.000, 0.000, 0.000, 17:22:26.944, 1563398546944
225, -18806.51, 0.00, 0.00, 0.00, 0.00, 0.00, 0.00, 0.00, 0.000, 0.000, 0.000, 17:22:26.944, 1563398546944
226, -18810.78, 0.00, 0.00, 0.00, 0.00, 0.00, 0.00, 0.00, 0.000, 0.000, 0.000, 17:22:26.944, 1563398546944
227, -18821.53, 0.00, 0.00, 0.00, 0.00, 0.00, 0.00, 0.00, 0.000, 0.000, 0.000, 17:22:26.944, 1563398546944
228, -18838.07, 0.00, 0.00, 0.00, 0.00, 0.00, 0.00, 0.00, 0.000, 0.000, 0.000, 17:22:26.944, 1563398546944
229, -18805.44, 0.00, 0.00, 0.00, 0.00, 0.00, 0.00, 0.00, 0.098, 0.024, 1.024, 17:22:26.944, 1563398546944
230, -18809.48, 0.00, 0.00, 0.00, 0.00, 0.00, 0.00, 0.00, 0.000, 0.000, 0.000, 17:22:26.944, 1563398546944
231, -18830.25, 0.00, 0.00, 0.00, 0.00, 0.00, 0.00, 0.00, 0.000, 0.000, 0.000, 17:22:26.944, 1563398546944
232, -18832.84, 0.00, 0.00, 0.00, 0.00, 0.00, 0.00, 0.00, 0.000, 0.000, 0.000, 17:22:26.944, 1563398546944
233, -18768.27, 0.00, 0.00, 0.00, 0.00, 0.00, 0.00, 0.00, 0.000, 0.000, 0.000, 17:22:26.944, 1563398546944
234, -18782.04, 0.00, 0.00, 0.00, 0.00, 0.00, 0.00, 0.00, 0.000, 0.000, 0.000, 17:22:26.944, 1563398546944
235, -18833.09, 0.00, 0.00, 0.00, 0.00, 0.00, 0.00, 0.00, 0.000, 0.000, 0.000, 17:22:26.944, 1563398546944
236, -18813.20, 0.00, 0.00, 0.00, 0.00, 0.00, 0.00, 0.00, 0.000, 0.000, 0.000, 17:22:26.944, 1563398546944
237, -18775.51, 0.00, 0.00, 0.00, 0.00, 0.00, 0.00, 0.00, 0.000, 0.000, 0.000, 17:22:26.944, 1563398546944
238, -18777.79, 0.00, 0.00, 0.00, 0.00, 0.00, 0.00, 0.00, 0.000, 0.000, 0.000, 17:22:26.944, 1563398546944
239, -18807.38, 0.00, 0.00, 0.00, 0.00, 0.00, 0.00, 0.00, 0.100, 0.028, 1.026, 17:22:26.944, 1563398546944
240, -18813.11, 0.00, 0.00, 0.00, 0.00, 0.00, 0.00, 0.00, 0.000, 0.000, 0.000, 17:22:26.945, 1563398546945
241, -18797.39, 0.00, 0.00, 0.00, 0.00, 0.00, 0.00, 0.00, 0.000, 0.000, 0.000, 17:22:26.945, 1563398546945
242, -18781.07, 0.00, 0.00, 0.00, 0.00, 0.00, 0.00, 0.00, 0.000, 0.000, 0.000, 17:22:26.945, 1563398546945
243, -18810.09, 0.00, 0.00, 0.00, 0.00, 0.00, 0.00, 0.00, 0.000, 0.000, 0.000, 17:22:26.945, 1563398546945
244, -18842.97, 0.00, 0.00, 0.00, 0.00, 0.00, 0.00, 0.00, 0.000, 0.000, 0.000, 17:22:26.945, 1563398546945
245, -18801.01, 0.00, 0.00, 0.00, 0.00, 0.00, 0.00, 0.00, 0.000, 0.000, 0.000, 17:22:26.945, 1563398546945
246, -18762.86, 0.00, 0.00, 0.00, 0.00, 0.00, 0.00, 0.00, 0.000, 0.000, 0.000, 17:22:26.945, 1563398546945
247, -18778.06, 0.00, 0.00, 0.00, 0.00, 0.00, 0.00, 0.00, 0.000, 0.000, 0.000, 17:22:26.945, 1563398546945
248, -18804.66, 0.00, 0.00, 0.00, 0.00, 0.00, 0.00, 0.00, 0.000, 0.000, 0.000, 17:22:26.945, 1563398546945
249, -18787.02, 0.00, 0.00, 0.00, 0.00, 0.00, 0.00, 0.00, 0.100, 0.028, 1.024, 17:22:26.945, 1563398546945
250, -18760.64, 0.00, 0.00, 0.00, 0.00, 0.00, 0.00, 0.00, 0.000, 0.000, 0.000, 17:22:26.945, 1563398546945
251, -18775.24, 0.00, 0.00, 0.00, 0.00, 0.00, 0.00, 0.00, 0.000, 0.000, 0.000, 17:22:26.945, 1563398546945
252, -18806.91, 0.00, 0.00, 0.00, 0.00, 0.00, 0.00, 0.00, 0.000, 0.000, 0.000, 17:22:26.945, 1563398546945
253, -18799.52, 0.00, 0.00, 0.00, 0.00, 0.00, 0.00, 0.00, 0.000, 0.000, 0.000, 17:22:26.945, 1563398546945
254, -18744.91, 0.00, 0.00, 0.00, 0.00, 0.00, 0.00, 0.00, 0.000, 0.000, 0.000, 17:22:26.945, 1563398546945
255, -18748.29, 0.00, 0.00, 0.00, 0.00, 0.00, 0.00, 0.00, 0.000, 0.000, 0.000, 17:22:26.945, 1563398546945
0, -18804.12, 0.00, 0.00, 0.00, 0.00, 0.00, 0.00, 0.00, 0.000, 0.000, 0.000, 17:22:26.945, 1563398546945
1, -18817.49, 0.00, 0.00, 0.00, 0.00, 0.00, 0.00, 0.00, 0.000, 0.000, 0.000, 17:22:26.945, 1563398546945
2, -18772.69, 0.00, 0.00, 0.00, 0.00, 0.00, 0.00, 0.00, 0.000, 0.000, 0.000, 17:22:26.945, 1563398546945
3, -18751.12, 0.00, 0.00, 0.00, 0.00, 0.00, 0.00, 0.00, 0.000, 0.000, 0.000, 17:22:26.945, 1563398546945
4, -18796.21, 0.00, 0.00, 0.00, 0.00, 0.00, 0.00, 0.00, 0.102, 0.028, 1.026, 17:22:26.945, 1563398546945
5, -18793.26, 0.00, 0.00, 0.00, 0.00, 0.00, 0.00, 0.00, 0.000, 0.000, 0.000, 17:22:26.945, 1563398546945
6, -18756.51, 0.00, 0.00, 0.00, 0.00, 0.00, 0.00, 0.00, 0.000, 0.000, 0.000, 17:22:26.945, 1563398546945
7, -18765.16, 0.00, 0.00, 0.00, 0.00, 0.00, 0.00, 0.00, 0.000, 0.000, 0.000, 17:22:26.945, 1563398546945
8, -18791.80, 0.00, 0.00, 0.00, 0.00, 0.00, 0.00, 0.00, 0.000, 0.000, 0.000, 17:22:26.945, 1563398546945
9, -18811.36, 0.00, 0.00, 0.00, 0.00, 0.00, 0.00, 0.00, 0.000, 0.000, 0.000, 17:22:26.945, 1563398546945
10, -18799.02, 0.00, 0.00, 0.00, 0.00, 0.00, 0.00, 0.00, 0.000, 0.000, 0.000, 17:22:26.945, 1563398546945
11, -18773.54, 0.00, 0.00, 0.00, 0.00, 0.00, 0.00, 0.00, 0.000, 0.000, 0.000, 17:22:26.945, 1563398546945
12, -18784.79, 0.00, 0.00, 0.00, 0.00, 0.00, 0.00, 0.00, 0.000, 0.000, 0.000, 17:22:26.945, 1563398546945
13, -18782.64, 0.00, 0.00, 0.00, 0.00, 0.00, 0.00, 0.00, 0.000, 0.000, 0.000, 17:22:26.945, 1563398546945
14, -18781.03, 0.00, 0.00, 0.00, 0.00, 0.00, 0.00, 0.00, 0.098, 0.026, 1.024, 17:22:26.946, 1563398546946
15, -18759.51, 0.00, 0.00, 0.00, 0.00, 0.00, 0.00, 0.00, 0.000, 0.000, 0.000, 17:22:26.946, 1563398546946
16, -18765.92, 0.00, 0.00, 0.00, 0.00, 0.00, 0.00, 0.00, 0.000, 0.000, 0.000, 17:22:26.946, 1563398546946
17, -18792.32, 0.00, 0.00, 0.00, 0.00, 0.00, 0.00, 0.00, 0.000, 0.000, 0.000, 17:22:26.946, 1563398546946
18, -18757.63, 0.00, 0.00, 0.00, 0.00, 0.00, 0.00, 0.00, 0.000, 0.000, 0.000, 17:22:26.946, 1563398546946
19, -18727.47, 0.00, 0.00, 0.00, 0.00, 0.00, 0.00, 0.00, 0.000, 0.000, 0.000, 17:22:26.946, 1563398546946
20, -18754.61, 0.00, 0.00, 0.00, 0.00, 0.00, 0.00, 0.00, 0.000, 0.000, 0.000, 17:22:26.946, 1563398546946
21, -18768.33, 0.00, 0.00, 0.00, 0.00, 0.00, 0.00, 0.00, 0.000, 0.000, 0.000, 17:22:26.946, 1563398546946
22, -18745.83, 0.00, 0.00, 0.00, 0.00, 0.00, 0.00, 0.00, 0.000, 0.000, 0.000, 17:22:26.946, 1563398546946
23, -18715.27, 0.00, 0.00, 0.00, 0.00, 0.00, 0.00, 0.00, 0.000, 0.000, 0.000, 17:22:26.946, 1563398546946
24, -18721.80, 0.00, 0.00, 0.00, 0.00, 0.00, 0.00, 0.00, 0.092, 0.026, 1.024, 17:22:26.946, 1563398546946
25, -18743.32, 0.00, 0.00, 0.00, 0.00, 0.00, 0.00, 0.00, 0.000, 0.000, 0.000, 17:22:26.946, 1563398546946
26, -18741.80, 0.00, 0.00, 0.00, 0.00, 0.00, 0.00, 0.00, 0.000, 0.000, 0.000, 17:22:26.946, 1563398546946
27, -18720.14, 0.00, 0.00, 0.00, 0.00, 0.00, 0.00, 0.00, 0.000, 0.000, 0.000, 17:22:26.946, 1563398546946
28, -18725.33, 0.00, 0.00, 0.00, 0.00, 0.00, 0.00, 0.00, 0.000, 0.000, 0.000, 17:22:26.946, 1563398546946
29, -18744.33, 0.00, 0.00, 0.00, 0.00, 0.00, 0.00, 0.00, 0.000, 0.000, 0.000, 17:22:26.946, 1563398546946
30, -18726.67, 0.00, 0.00, 0.00, 0.00, 0.00, 0.00, 0.00, 0.000, 0.000, 0.000, 17:22:26.946, 1563398546946
31, -18695.33, 0.00, 0.00, 0.00, 0.00, 0.00, 0.00, 0.00, 0.000, 0.000, 0.000, 17:22:26.946, 1563398546946
32, -18695.87, 0.00, 0.00, 0.00, 0.00, 0.00, 0.00, 0.00, 0.000, 0.000, 0.000, 17:22:26.946, 1563398546946
33, -18734.81, 0.00, 0.00, 0.00, 0.00, 0.00, 0.00, 0.00, 0.000, 0.000, 0.000, 17:22:26.947, 1563398546947
34, -18746.07, 0.00, 0.00, 0.00, 0.00, 0.00, 0.00, 0.00, 0.096, 0.028, 1.024, 17:22:26.947, 1563398546947
35, -18707.49, 0.00, 0.00, 0.00, 0.00, 0.00, 0.00, 0.00, 0.000, 0.000, 0.000, 17:22:26.947, 1563398546947
36, -18675.08, 0.00, 0.00, 0.00, 0.00, 0.00, 0.00, 0.00, 0.000, 0.000, 0.000, 17:22:26.947, 1563398546947
37, -18710.18, 0.00, 0.00, 0.00, 0.00, 0.00, 0.00, 0.00, 0.000, 0.000, 0.000, 17:22:26.947, 1563398546947
38, -18709.42, 0.00, 0.00, 0.00, 0.00, 0.00, 0.00, 0.00, 0.000, 0.000, 0.000, 17:22:26.947, 1563398546947
39, -18687.42, 0.00, 0.00, 0.00, 0.00, 0.00, 0.00, 0.00, 0.000, 0.000, 0.000, 17:22:26.947, 1563398546947
40, -18684.34, 0.00, 0.00, 0.00, 0.00, 0.00, 0.00, 0.00, 0.000, 0.000, 0.000, 17:22:26.947, 1563398546947
41, -18709.73, 0.00, 0.00, 0.00, 0.00, 0.00, 0.00, 0.00, 0.000, 0.000, 0.000, 17:22:26.947, 1563398546947
42, -18709.62, 0.00, 0.00, 0.00, 0.00, 0.00, 0.00, 0.00, 0.000, 0.000, 0.000, 17:22:26.947, 1563398546947
43, -18681.50, 0.00, 0.00, 0.00, 0.00, 0.00, 0.00, 0.00, 0.000, 0.000, 0.000, 17:22:26.947, 1563398546947
44, -18663.17, 0.00, 0.00, 0.00, 0.00, 0.00, 0.00, 0.00, 0.094, 0.020, 1.022, 17:22:26.947, 1563398546947
45, -18696.23, 0.00, 0.00, 0.00, 0.00, 0.00, 0.00, 0.00, 0.000, 0.000, 0.000, 17:22:26.947, 1563398546947
46, -18717.84, 0.00, 0.00, 0.00, 0.00, 0.00, 0.00, 0.00, 0.000, 0.000, 0.000, 17:22:26.947, 1563398546947
47, -18701.88, 0.00, 0.00, 0.00, 0.00, 0.00, 0.00, 0.00, 0.000, 0.000, 0.000, 17:22:26.947, 1563398546947
48, -18667.82, 0.00, 0.00, 0.00, 0.00, 0.00, 0.00, 0.00, 0.000, 0.000, 0.000, 17:22:26.947, 1563398546947
49, -18667.75, 0.00, 0.00, 0.00, 0.00, 0.00, 0.00, 0.00, 0.000, 0.000, 0.000, 17:22:26.947, 1563398546947
50, -18672.22, 0.00, 0.00, 0.00, 0.00, 0.00, 0.00, 0.00, 0.000, 0.000, 0.000, 17:22:26.947, 1563398546947
51, -18660.49, 0.00, 0.00, 0.00, 0.00, 0.00, 0.00, 0.00, 0.000, 0.000, 0.000, 17:22:26.947, 1563398546947
52, -18639.81, 0.00, 0.00, 0.00, 0.00, 0.00, 0.00, 0.00, 0.000, 0.000, 0.000, 17:22:26.947, 1563398546947
53, -18650.32, 0.00, 0.00, 0.00, 0.00, 0.00, 0.00, 0.00, 0.000, 0.000, 0.000, 17:22:26.947, 1563398546947
54, -18681.12, 0.00, 0.00, 0.00, 0.00, 0.00, 0.00, 0.00, 0.000, 0.000, 0.000, 17:22:26.947, 1563398546947
55, -18688.03, 0.00, 0.00, 0.00, 0.00, 0.00, 0.00, 0.00, 0.100, 0.022, 1.022, 17:22:26.947, 1563398546947
56, -18648.15, 0.00, 0.00, 0.00, 0.00, 0.00, 0.00, 0.00, 0.000, 0.000, 0.000, 17:22:26.947, 1563398546947
57, -18655.37, 0.00, 0.00, 0.00, 0.00, 0.00, 0.00, 0.00, 0.000, 0.000, 0.000, 17:22:26.947, 1563398546947
58, -18670.12, 0.00, 0.00, 0.00, 0.00, 0.00, 0.00, 0.00, 0.000, 0.000, 0.000, 17:22:26.947, 1563398546947
59, -18655.08, 0.00, 0.00, 0.00, 0.00, 0.00, 0.00, 0.00, 0.000, 0.000, 0.000, 17:22:26.947, 1563398546947
60, -18630.78, 0.00, 0.00, 0.00, 0.00, 0.00, 0.00, 0.00, 0.000, 0.000, 0.000, 17:22:26.947, 1563398546947
61, -18624.72, 0.00, 0.00, 0.00, 0.00, 0.00, 0.00, 0.00, 0.000, 0.000, 0.000, 17:22:26.947, 1563398546947
62, -18657.34, 0.00, 0.00, 0.00, 0.00, 0.00, 0.00, 0.00, 0.000, 0.000, 0.000, 17:22:26.947, 1563398546947
63, -18673.99, 0.00, 0.00, 0.00, 0.00, 0.00, 0.00, 0.00, 0.000, 0.000, 0.000, 17:22:26.947, 1563398546947
64, -18642.36, 0.00, 0.00, 0.00, 0.00, 0.00, 0.00, 0.00, 0.000, 0.000, 0.000, 17:22:26.947, 1563398546947
65, -18624.43, 0.00, 0.00, 0.00, 0.00, 0.00, 0.00, 0.00, 0.094, 0.026, 1.028, 17:22:26.947, 1563398546947
66, -18630.07, 0.00, 0.00, 0.00, 0.00, 0.00, 0.00, 0.00, 0.000, 0.000, 0.000, 17:22:26.948, 1563398546948
67, -18671.66, 0.00, 0.00, 0.00, 0.00, 0.00, 0.00, 0.00, 0.000, 0.000, 0.000, 17:22:26.948, 1563398546948
68, -18638.94, 0.00, 0.00, 0.00, 0.00, 0.00, 0.00, 0.00, 0.000, 0.000, 0.000, 17:22:26.948, 1563398546948
69, -18610.60, 0.00, 0.00, 0.00, 0.00, 0.00, 0.00, 0.00, 0.000, 0.000, 0.000, 17:22:26.948, 1563398546948
70, -18624.77, 0.00, 0.00, 0.00, 0.00, 0.00, 0.00, 0.00, 0.000, 0.000, 0.000, 17:22:26.948, 1563398546948
71, -18645.18, 0.00, 0.00, 0.00, 0.00, 0.00, 0.00, 0.00, 0.000, 0.000, 0.000, 17:22:26.948, 1563398546948
72, -18635.70, 0.00, 0.00, 0.00, 0.00, 0.00, 0.00, 0.00, 0.000, 0.000, 0.000, 17:22:26.948, 1563398546948
73, -18618.31, 0.00, 0.00, 0.00, 0.00, 0.00, 0.00, 0.00, 0.000, 0.000, 0.000, 17:22:26.948, 1563398546948
74, -18649.85, 0.00, 0.00, 0.00, 0.00, 0.00, 0.00, 0.00, 0.000, 0.000, 0.000, 17:22:27.424, 1563398547424
75, -18679.67, 0.00, 0.00, 0.00, 0.00, 0.00, 0.00, 0.00, 0.094, 0.024, 1.024, 17:22:27.424, 1563398547424
76, -18675.87, 0.00, 0.00, 0.00, 0.00, 0.00, 0.00, 0.00, 0.000, 0.000, 0.000, 17:22:27.424, 1563398547424
77, -18679.31, 0.00, 0.00, 0.00, 0.00, 0.00, 0.00, 0.00, 0.000, 0.000, 0.000, 17:22:27.424, 1563398547424
78, -18692.38, 0.00, 0.00, 0.00, 0.00, 0.00, 0.00, 0.00, 0.000, 0.000, 0.000, 17:22:27.424, 1563398547424
79, -18750.90, 0.00, 0.00, 0.00, 0.00, 0.00, 0.00, 0.00, 0.000, 0.000, 0.000, 17:22:27.424, 1563398547424
80, -18778.46, 0.00, 0.00, 0.00, 0.00, 0.00, 0.00, 0.00, 0.000, 0.000, 0.000, 17:22:27.424, 1563398547424
81, -18788.25, 0.00, 0.00, 0.00, 0.00, 0.00, 0.00, 0.00, 0.000, 0.000, 0.000, 17:22:27.424, 1563398547424
82, -18815.38, 0.00, 0.00, 0.00, 0.00, 0.00, 0.00, 0.00, 0.000, 0.000, 0.000, 17:22:27.424, 1563398547424
83, -18860.16, 0.00, 0.00, 0.00, 0.00, 0.00, 0.00, 0.00, 0.000, 0.000, 0.000, 17:22:27.424, 1563398547424
84, -18895.14, 0.00, 0.00, 0.00, 0.00, 0.00, 0.00, 0.00, 0.000, 0.000, 0.000, 17:22:27.424, 1563398547424
85, -18881.75, 0.00, 0.00, 0.00, 0.00, 0.00, 0.00, 0.00, 0.096, 0.026, 1.020, 17:22:27.424, 1563398547424
86, -18879.94, 0.00, 0.00, 0.00, 0.00, 0.00, 0.00, 0.00, 0.000, 0.000, 0.000, 17:22:27.424, 1563398547424
87, -18899.23, 0.00, 0.00, 0.00, 0.00, 0.00, 0.00, 0.00, 0.000, 0.000, 0.000, 17:22:27.424, 1563398547424
88, -18935.59, 0.00, 0.00, 0.00, 0.00, 0.00, 0.00, 0.00, 0.000, 0.000, 0.000, 17:22:27.425, 1563398547425
89, -18901.97, 0.00, 0.00, 0.00, 0.00, 0.00, 0.00, 0.00, 0.000, 0.000, 0.000, 17:22:27.425, 1563398547425
90, -18872.34, 0.00, 0.00, 0.00, 0.00, 0.00, 0.00, 0.00, 0.000, 0.000, 0.000, 17:22:27.426, 1563398547426
91, -18881.88, 0.00, 0.00, 0.00, 0.00, 0.00, 0.00, 0.00, 0.000, 0.000, 0.000, 17:22:27.426, 1563398547426
92, -18903.34, 0.00, 0.00, 0.00, 0.00, 0.00, 0.00, 0.00, 0.000, 0.000, 0.000, 17:22:27.426, 1563398547426
93, -18878.78, 0.00, 0.00, 0.00, 0.00, 0.00, 0.00, 0.00, 0.000, 0.000, 0.000, 17:22:27.426, 1563398547426
94, -18824.84, 0.00, 0.00, 0.00, 0.00, 0.00, 0.00, 0.00, 0.000, 0.000, 0.000, 17:22:27.426, 1563398547426
95, -18825.09, 0.00, 0.00, 0.00, 0.00, 0.00, 0.00, 0.00, 0.102, 0.022, 1.022, 17:22:27.426, 1563398547426
96, -18827.81, 0.00, 0.00, 0.00, 0.00, 0.00, 0.00, 0.00, 0.000, 0.000, 0.000, 17:22:27.426, 1563398547426
97, -18799.81, 0.00, 0.00, 0.00, 0.00, 0.00, 0.00, 0.00, 0.000, 0.000, 0.000, 17:22:27.426, 1563398547426
98, -18746.72, 0.00, 0.00, 0.00, 0.00, 0.00, 0.00, 0.00, 0.000, 0.000, 0.000, 17:22:27.426, 1563398547426
99, -18746.32, 0.00, 0.00, 0.00, 0.00, 0.00, 0.00, 0.00, 0.000, 0.000, 0.000, 17:22:27.426, 1563398547426
100, -18737.11, 0.00, 0.00, 0.00, 0.00, 0.00, 0.00, 0.00, 0.000, 0.000, 0.000, 17:22:27.426, 1563398547426
101, -18715.94, 0.00, 0.00, 0.00, 0.00, 0.00, 0.00, 0.00, 0.000, 0.000, 0.000, 17:22:27.426, 1563398547426
102, -18682.08, 0.00, 0.00, 0.00, 0.00, 0.00, 0.00, 0.00, 0.000, 0.000, 0.000, 17:22:27.426, 1563398547426
103, -18675.17, 0.00, 0.00, 0.00, 0.00, 0.00, 0.00, 0.00, 0.000, 0.000, 0.000, 17:22:27.426, 1563398547426
104, -18662.83, 0.00, 0.00, 0.00, 0.00, 0.00, 0.00, 0.00, 0.000, 0.000, 0.000, 17:22:27.426, 1563398547426
105, -18652.73, 0.00, 0.00, 0.00, 0.00, 0.00, 0.00, 0.00, 0.096, 0.024, 1.020, 17:22:27.426, 1563398547426
106, -18629.98, 0.00, 0.00, 0.00, 0.00, 0.00, 0.00, 0.00, 0.000, 0.000, 0.000, 17:22:27.426, 1563398547426
107, -18599.85, 0.00, 0.00, 0.00, 0.00, 0.00, 0.00, 0.00, 0.000, 0.000, 0.000, 17:22:27.426, 1563398547426
108, -18625.26, 0.00, 0.00, 0.00, 0.00, 0.00, 0.00, 0.00, 0.000, 0.000, 0.000, 17:22:27.426, 1563398547426
109, -18625.35, 0.00, 0.00, 0.00, 0.00, 0.00, 0.00, 0.00, 0.000, 0.000, 0.000, 17:22:27.426, 1563398547426
110, -18574.19, 0.00, 0.00, 0.00, 0.00, 0.00, 0.00, 0.00, 0.000, 0.000, 0.000, 17:22:27.426, 1563398547426
111, -18553.09, 0.00, 0.00, 0.00, 0.00, 0.00, 0.00, 0.00, 0.000, 0.000, 0.000, 17:22:27.426, 1563398547426
112, -18570.21, 0.00, 0.00, 0.00, 0.00, 0.00, 0.00, 0.00, 0.000, 0.000, 0.000, 17:22:27.426, 1563398547426
113, -18579.62, 0.00, 0.00, 0.00, 0.00, 0.00, 0.00, 0.00, 0.000, 0.000, 0.000, 17:22:27.426, 1563398547426
114, -18559.14, 0.00, 0.00, 0.00, 0.00, 0.00, 0.00, 0.00, 0.000, 0.000, 0.000, 17:22:27.426, 1563398547426
115, -18551.54, 0.00, 0.00, 0.00, 0.00, 0.00, 0.00, 0.00, 0.000, 0.000, 0.000, 17:22:27.426, 1563398547426
116, -18539.07, 0.00, 0.00, 0.00, 0.00, 0.00, 0.00, 0.00, 0.094, 0.026, 1.024, 17:22:27.426, 1563398547426
117, -18554.92, 0.00, 0.00, 0.00, 0.00, 0.00, 0.00, 0.00, 0.000, 0.000, 0.000, 17:22:27.427, 1563398547427
118, -18533.62, 0.00, 0.00, 0.00, 0.00, 0.00, 0.00, 0.00, 0.000, 0.000, 0.000, 17:22:27.427, 1563398547427
119, -18512.38, 0.00, 0.00, 0.00, 0.00, 0.00, 0.00, 0.00, 0.000, 0.000, 0.000, 17:22:27.427, 1563398547427
120, -18531.21, 0.00, 0.00, 0.00, 0.00, 0.00, 0.00, 0.00, 0.000, 0.000, 0.000, 17:22:27.427, 1563398547427
121, -18530.11, 0.00, 0.00, 0.00, 0.00, 0.00, 0.00, 0.00, 0.000, 0.000, 0.000, 17:22:27.427, 1563398547427
122, -18515.67, 0.00, 0.00, 0.00, 0.00, 0.00, 0.00, 0.00, 0.000, 0.000, 0.000, 17:22:27.427, 1563398547427
123, -18490.50, 0.00, 0.00, 0.00, 0.00, 0.00, 0.00, 0.00, 0.000, 0.000, 0.000, 17:22:27.427, 1563398547427
124, -18511.83, 0.00, 0.00, 0.00, 0.00, 0.00, 0.00, 0.00, 0.000, 0.000, 0.000, 17:22:27.427, 1563398547427
125, -18518.80, 0.00, 0.00, 0.00, 0.00, 0.00, 0.00, 0.00, 0.000, 0.000, 0.000, 17:22:27.427, 1563398547427
126, -18487.89, 0.00, 0.00, 0.00, 0.00, 0.00, 0.00, 0.00, 0.096, 0.024, 1.024, 17:22:27.427, 1563398547427
127, -18474.99, 0.00, 0.00, 0.00, 0.00, 0.00, 0.00, 0.00, 0.000, 0.000, 0.000, 17:22:27.427, 1563398547427
128, -18484.65, 0.00, 0.00, 0.00, 0.00, 0.00, 0.00, 0.00, 0.000, 0.000, 0.000, 17:22:27.427, 1563398547427
129, -18503.94, 0.00, 0.00, 0.00, 0.00, 0.00, 0.00, 0.00, 0.000, 0.000, 0.000, 17:22:27.427, 1563398547427
130, -18495.58, 0.00, 0.00, 0.00, 0.00, 0.00, 0.00, 0.00, 0.000, 0.000, 0.000, 17:22:27.427, 1563398547427
131, -18460.55, 0.00, 0.00, 0.00, 0.00, 0.00, 0.00, 0.00, 0.000, 0.000, 0.000, 17:22:27.427, 1563398547427
132, -18435.25, 0.00, 0.00, 0.00, 0.00, 0.00, 0.00, 0.00, 0.000, 0.000, 0.000, 17:22:27.427, 1563398547427
133, -18469.58, 0.00, 0.00, 0.00, 0.00, 0.00, 0.00, 0.00, 0.000, 0.000, 0.000, 17:22:27.427, 1563398547427
134, -18482.81, 0.00, 0.00, 0.00, 0.00, 0.00, 0.00, 0.00, 0.000, 0.000, 0.000, 17:22:27.427, 1563398547427
135, -18466.07, 0.00, 0.00, 0.00, 0.00, 0.00, 0.00, 0.00, 0.000, 0.000, 0.000, 17:22:27.428, 1563398547428
136, -18460.57, 0.00, 0.00, 0.00, 0.00, 0.00, 0.00, 0.00, 0.098, 0.030, 1.026, 17:22:27.428, 1563398547428
137, -18494.91, 0.00, 0.00, 0.00, 0.00, 0.00, 0.00, 0.00, 0.000, 0.000, 0.000, 17:22:27.428, 1563398547428
138, -18491.49, 0.00, 0.00, 0.00, 0.00, 0.00, 0.00, 0.00, 0.000, 0.000, 0.000, 17:22:27.428, 1563398547428
139, -18463.10, 0.00, 0.00, 0.00, 0.00, 0.00, 0.00, 0.00, 0.000, 0.000, 0.000, 17:22:27.428, 1563398547428
140, -18454.63, 0.00, 0.00, 0.00, 0.00, 0.00, 0.00, 0.00, 0.000, 0.000, 0.000, 17:22:27.428, 1563398547428
141, -18478.37, 0.00, 0.00, 0.00, 0.00, 0.00, 0.00, 0.00, 0.000, 0.000, 0.000, 17:22:27.428, 1563398547428
142, -18499.55, 0.00, 0.00, 0.00, 0.00, 0.00, 0.00, 0.00, 0.000, 0.000, 0.000, 17:22:27.428, 1563398547428
143, -18483.35, 0.00, 0.00, 0.00, 0.00, 0.00, 0.00, 0.00, 0.000, 0.000, 0.000, 17:22:27.428, 1563398547428
144, -18453.89, 0.00, 0.00, 0.00, 0.00, 0.00, 0.00, 0.00, 0.000, 0.000, 0.000, 17:22:27.428, 1563398547428
145, -18468.26, 0.00, 0.00, 0.00, 0.00, 0.00, 0.00, 0.00, 0.000, 0.000, 0.000, 17:22:27.428, 1563398547428
146, -18481.96, 0.00, 0.00, 0.00, 0.00, 0.00, 0.00, 0.00, 0.100, 0.026, 1.026, 17:22:27.428, 1563398547428
147, -18463.97, 0.00, 0.00, 0.00, 0.00, 0.00, 0.00, 0.00, 0.000, 0.000, 0.000, 17:22:27.428, 1563398547428
148, -18452.75, 0.00, 0.00, 0.00, 0.00, 0.00, 0.00, 0.00, 0.000, 0.000, 0.000, 17:22:27.428, 1563398547428
149, -18456.77, 0.00, 0.00, 0.00, 0.00, 0.00, 0.00, 0.00, 0.000, 0.000, 0.000, 17:22:27.428, 1563398547428
150, -18482.86, 0.00, 0.00, 0.00, 0.00, 0.00, 0.00, 0.00, 0.000, 0.000, 0.000, 17:22:27.428, 1563398547428
151, -18487.69, 0.00, 0.00, 0.00, 0.00, 0.00, 0.00, 0.00, 0.000, 0.000, 0.000, 17:22:27.428, 1563398547428
152, -18453.62, 0.00, 0.00, 0.00, 0.00, 0.00, 0.00, 0.00, 0.000, 0.000, 0.000, 17:22:27.429, 1563398547429
153, -18459.21, 0.00, 0.00, 0.00, 0.00, 0.00, 0.00, 0.00, 0.000, 0.000, 0.000, 17:22:27.429, 1563398547429
154, -18481.25, 0.00, 0.00, 0.00, 0.00, 0.00, 0.00, 0.00, 0.000, 0.000, 0.000, 17:22:27.429, 1563398547429
155, -18482.61, 0.00, 0.00, 0.00, 0.00, 0.00, 0.00, 0.00, 0.000, 0.000, 0.000, 17:22:27.429, 1563398547429
156, -18462.81, 0.00, 0.00, 0.00, 0.00, 0.00, 0.00, 0.00, 0.094, 0.028, 1.028, 17:22:27.429, 1563398547429
157, -18436.81, 0.00, 0.00, 0.00, 0.00, 0.00, 0.00, 0.00, 0.000, 0.000, 0.000, 17:22:27.429, 1563398547429
158, -18478.50, 0.00, 0.00, 0.00, 0.00, 0.00, 0.00, 0.00, 0.000, 0.000, 0.000, 17:22:27.429, 1563398547429
159, -18466.99, 0.00, 0.00, 0.00, 0.00, 0.00, 0.00, 0.00, 0.000, 0.000, 0.000, 17:22:27.429, 1563398547429
160, -18422.58, 0.00, 0.00, 0.00, 0.00, 0.00, 0.00, 0.00, 0.000, 0.000, 0.000, 17:22:27.429, 1563398547429
161, -18413.54, 0.00, 0.00, 0.00, 0.00, 0.00, 0.00, 0.00, 0.000, 0.000, 0.000, 17:22:27.429, 1563398547429
162, -18452.01, 0.00, 0.00, 0.00, 0.00, 0.00, 0.00, 0.00, 0.000, 0.000, 0.000, 17:22:27.429, 1563398547429
163, -18467.84, 0.00, 0.00, 0.00, 0.00, 0.00, 0.00, 0.00, 0.000, 0.000, 0.000, 17:22:27.429, 1563398547429
164, -18439.94, 0.00, 0.00, 0.00, 0.00, 0.00, 0.00, 0.00, 0.000, 0.000, 0.000, 17:22:27.429, 1563398547429
165, -18432.14, 0.00, 0.00, 0.00, 0.00, 0.00, 0.00, 0.00, 0.000, 0.000, 0.000, 17:22:27.429, 1563398547429
166, -18437.33, 0.00, 0.00, 0.00, 0.00, 0.00, 0.00, 0.00, 0.000, 0.000, 0.000, 17:22:27.429, 1563398547429
167, -18448.88, 0.00, 0.00, 0.00, 0.00, 0.00, 0.00, 0.00, 0.096, 0.032, 1.026, 17:22:27.429, 1563398547429
168, -18435.90, 0.00, 0.00, 0.00, 0.00, 0.00, 0.00, 0.00, 0.000, 0.000, 0.000, 17:22:27.429, 1563398547429
169, -18425.86, 0.00, 0.00, 0.00, 0.00, 0.00, 0.00, 0.00, 0.000, 0.000, 0.000, 17:22:27.429, 1563398547429
170, -18424.97, 0.00, 0.00, 0.00, 0.00, 0.00, 0.00, 0.00, 0.000, 0.000, 0.000, 17:22:27.429, 1563398547429
171, -18465.47, 0.00, 0.00, 0.00, 0.00, 0.00, 0.00, 0.00, 0.000, 0.000, 0.000, 17:22:27.429, 1563398547429
172, -18460.78, 0.00, 0.00, 0.00, 0.00, 0.00, 0.00, 0.00, 0.000, 0.000, 0.000, 17:22:27.430, 1563398547430
173, -18422.08, 0.00, 0.00, 0.00, 0.00, 0.00, 0.00, 0.00, 0.000, 0.000, 0.000, 17:22:27.430, 1563398547430
174, -18443.59, 0.00, 0.00, 0.00, 0.00, 0.00, 0.00, 0.00, 0.000, 0.000, 0.000, 17:22:27.430, 1563398547430
175, -18427.09, 0.00, 0.00, 0.00, 0.00, 0.00, 0.00, 0.00, 0.000, 0.000, 0.000, 17:22:27.430, 1563398547430
176, -18426.71, 0.00, 0.00, 0.00, 0.00, 0.00, 0.00, 0.00, 0.000, 0.000, 0.000, 17:22:27.430, 1563398547430
177, -18398.05, 0.00, 0.00, 0.00, 0.00, 0.00, 0.00, 0.00, 0.100, 0.030, 1.024, 17:22:27.430, 1563398547430
178, -18409.46, 0.00, 0.00, 0.00, 0.00, 0.00, 0.00, 0.00, 0.000, 0.000, 0.000, 17:22:27.430, 1563398547430
179, -18429.93, 0.00, 0.00, 0.00, 0.00, 0.00, 0.00, 0.00, 0.000, 0.000, 0.000, 17:22:27.430, 1563398547430
180, -18431.96, 0.00, 0.00, 0.00, 0.00, 0.00, 0.00, 0.00, 0.000, 0.000, 0.000, 17:22:27.430, 1563398547430
181, -18407.89, 0.00, 0.00, 0.00, 0.00, 0.00, 0.00, 0.00, 0.000, 0.000, 0.000, 17:22:27.430, 1563398547430
182, -18397.41, 0.00, 0.00, 0.00, 0.00, 0.00, 0.00, 0.00, 0.000, 0.000, 0.000, 17:22:27.430, 1563398547430
183, -18435.81, 0.00, 0.00, 0.00, 0.00, 0.00, 0.00, 0.00, 0.000, 0.000, 0.000, 17:22:27.430, 1563398547430
184, -18432.03, 0.00, 0.00, 0.00, 0.00, 0.00, 0.00, 0.00, 0.000, 0.000, 0.000, 17:22:27.430, 1563398547430
185, -18418.02, 0.00, 0.00, 0.00, 0.00, 0.00, 0.00, 0.00, 0.000, 0.000, 0.000, 17:22:27.430, 1563398547430
186, -18404.67, 0.00, 0.00, 0.00, 0.00, 0.00, 0.00, 0.00, 0.000, 0.000, 0.000, 17:22:27.430, 1563398547430
187, -18403.40, 0.00, 0.00, 0.00, 0.00, 0.00, 0.00, 0.00, 0.102, 0.028, 1.024, 17:22:27.430, 1563398547430
188, -18415.13, 0.00, 0.00, 0.00, 0.00, 0.00, 0.00, 0.00, 0.000, 0.000, 0.000, 17:22:27.430, 1563398547430
189, -18406.93, 0.00, 0.00, 0.00, 0.00, 0.00, 0.00, 0.00, 0.000, 0.000, 0.000, 17:22:27.430, 1563398547430
190, -18402.01, 0.00, 0.00, 0.00, 0.00, 0.00, 0.00, 0.00, 0.000, 0.000, 0.000, 17:22:27.431, 1563398547431
191, -18409.63, 0.00, 0.00, 0.00, 0.00, 0.00, 0.00, 0.00, 0.000, 0.000, 0.000, 17:22:27.431, 1563398547431
192, -18425.79, 0.00, 0.00, 0.00, 0.00, 0.00, 0.00, 0.00, 0.000, 0.000, 0.000, 17:22:27.431, 1563398547431
193, -18431.99, 0.00, 0.00, 0.00, 0.00, 0.00, 0.00, 0.00, 0.000, 0.000, 0.000, 17:22:27.431, 1563398547431
194, -18401.21, 0.00, 0.00, 0.00, 0.00, 0.00, 0.00, 0.00, 0.000, 0.000, 0.000, 17:22:27.905, 1563398547905
195, -18384.69, 0.00, 0.00, 0.00, 0.00, 0.00, 0.00, 0.00, 0.000, 0.000, 0.000, 17:22:27.906, 1563398547906
196, -18416.41, 0.00, 0.00, 0.00, 0.00, 0.00, 0.00, 0.00, 0.000, 0.000, 0.000, 17:22:27.906, 1563398547906
197, -18415.24, 0.00, 0.00, 0.00, 0.00, 0.00, 0.00, 0.00, 0.100, 0.026, 1.022, 17:22:27.906, 1563398547906
198, -18385.40, 0.00, 0.00, 0.00, 0.00, 0.00, 0.00, 0.00, 0.000, 0.000, 0.000, 17:22:27.906, 1563398547906
199, -18385.90, 0.00, 0.00, 0.00, 0.00, 0.00, 0.00, 0.00, 0.000, 0.000, 0.000, 17:22:27.906, 1563398547906
200, -18411.44, 0.00, 0.00, 0.00, 0.00, 0.00, 0.00, 0.00, 0.000, 0.000, 0.000, 17:22:27.906, 1563398547906
201, -18422.82, 0.00, 0.00, 0.00, 0.00, 0.00, 0.00, 0.00, 0.000, 0.000, 0.000, 17:22:27.906, 1563398547906
202, -18390.54, 0.00, 0.00, 0.00, 0.00, 0.00, 0.00, 0.00, 0.000, 0.000, 0.000, 17:22:27.906, 1563398547906
203, -18396.56, 0.00, 0.00, 0.00, 0.00, 0.00, 0.00, 0.00, 0.000, 0.000, 0.000, 17:22:27.906, 1563398547906
204, -18426.26, 0.00, 0.00, 0.00, 0.00, 0.00, 0.00, 0.00, 0.000, 0.000, 0.000, 17:22:27.906, 1563398547906
205, -18415.85, 0.00, 0.00, 0.00, 0.00, 0.00, 0.00, 0.00, 0.000, 0.000, 0.000, 17:22:27.906, 1563398547906
206, -18383.26, 0.00, 0.00, 0.00, 0.00, 0.00, 0.00, 0.00, 0.000, 0.000, 0.000, 17:22:27.906, 1563398547906
207, -18402.75, 0.00, 0.00, 0.00, 0.00, 0.00, 0.00, 0.00, 0.102, 0.030, 1.024, 17:22:27.906, 1563398547906
208, -18402.88, 0.00, 0.00, 0.00, 0.00, 0.00, 0.00, 0.00, 0.000, 0.000, 0.000, 17:22:27.906, 1563398547906
209, -18414.84, 0.00, 0.00, 0.00, 0.00, 0.00, 0.00, 0.00, 0.000, 0.000, 0.000, 17:22:27.906, 1563398547906
210, -18372.80, 0.00, 0.00, 0.00, 0.00, 0.00, 0.00, 0.00, 0.000, 0.000, 0.000, 17:22:27.906, 1563398547906
211, -18366.96, 0.00, 0.00, 0.00, 0.00, 0.00, 0.00, 0.00, 0.000, 0.000, 0.000, 17:22:27.906, 1563398547906
212, -18393.32, 0.00, 0.00, 0.00, 0.00, 0.00, 0.00, 0.00, 0.000, 0.000, 0.000, 17:22:27.906, 1563398547906
213, -18416.07, 0.00, 0.00, 0.00, 0.00, 0.00, 0.00, 0.00, 0.000, 0.000, 0.000, 17:22:27.906, 1563398547906
214, -18372.73, 0.00, 0.00, 0.00, 0.00, 0.00, 0.00, 0.00, 0.000, 0.000, 0.000, 17:22:27.906, 1563398547906
215, -18358.16, 0.00, 0.00, 0.00, 0.00, 0.00, 0.00, 0.00, 0.000, 0.000, 0.000, 17:22:27.906, 1563398547906
216, -18392.13, 0.00, 0.00, 0.00, 0.00, 0.00, 0.00, 0.00, 0.000, 0.000, 0.000, 17:22:27.906, 1563398547906
217, -18410.80, 0.00, 0.00, 0.00, 0.00, 0.00, 0.00, 0.00, 0.102, 0.026, 1.020, 17:22:27.906, 1563398547906
218, -18413.68, 0.00, 0.00, 0.00, 0.00, 0.00, 0.00, 0.00, 0.000, 0.000, 0.000, 17:22:27.906, 1563398547906
219, -18362.94, 0.00, 0.00, 0.00, 0.00, 0.00, 0.00, 0.00, 0.000, 0.000, 0.000, 17:22:27.906, 1563398547906
220, -18367.97, 0.00, 0.00, 0.00, 0.00, 0.00, 0.00, 0.00, 0.000, 0.000, 0.000, 17:22:27.906, 1563398547906
221, -18391.04, 0.00, 0.00, 0.00, 0.00, 0.00, 0.00, 0.00, 0.000, 0.000, 0.000, 17:22:27.906, 1563398547906
222, -18364.73, 0.00, 0.00, 0.00, 0.00, 0.00, 0.00, 0.00, 0.000, 0.000, 0.000, 17:22:27.906, 1563398547906
223, -18361.55, 0.00, 0.00, 0.00, 0.00, 0.00, 0.00, 0.00, 0.000, 0.000, 0.000, 17:22:27.906, 1563398547906
224, -18354.20, 0.00, 0.00, 0.00, 0.00, 0.00, 0.00, 0.00, 0.000, 0.000, 0.000, 17:22:27.906, 1563398547906
225, -18386.83, 0.00, 0.00, 0.00, 0.00, 0.00, 0.00, 0.00, 0.000, 0.000, 0.000, 17:22:27.906, 1563398547906
226, -18397.61, 0.00, 0.00, 0.00, 0.00, 0.00, 0.00, 0.00, 0.000, 0.000, 0.000, 17:22:27.906, 1563398547906
227, -18355.97, 0.00, 0.00, 0.00, 0.00, 0.00, 0.00, 0.00, 0.000, 0.000, 0.000, 17:22:27.906, 1563398547906
228, -18362.94, 0.00, 0.00, 0.00, 0.00, 0.00, 0.00, 0.00, 0.098, 0.028, 1.026, 17:22:27.907, 1563398547907
229, -18390.43, 0.00, 0.00, 0.00, 0.00, 0.00, 0.00, 0.00, 0.000, 0.000, 0.000, 17:22:27.907, 1563398547907
230, -18395.87, 0.00, 0.00, 0.00, 0.00, 0.00, 0.00, 0.00, 0.000, 0.000, 0.000, 17:22:27.907, 1563398547907
231, -18359.10, 0.00, 0.00, 0.00, 0.00, 0.00, 0.00, 0.00, 0.000, 0.000, 0.000, 17:22:27.907, 1563398547907
232, -18346.67, 0.00, 0.00, 0.00, 0.00, 0.00, 0.00, 0.00, 0.000, 0.000, 0.000, 17:22:27.907, 1563398547907
233, -18381.09, 0.00, 0.00, 0.00, 0.00, 0.00, 0.00, 0.00, 0.000, 0.000, 0.000, 17:22:27.907, 1563398547907
234, -18392.31, 0.00, 0.00, 0.00, 0.00, 0.00, 0.00, 0.00, 0.000, 0.000, 0.000, 17:22:27.907, 1563398547907
235, -18370.54, 0.00, 0.00, 0.00, 0.00, 0.00, 0.00, 0.00, 0.000, 0.000, 0.000, 17:22:27.907, 1563398547907
236, -18328.83, 0.00, 0.00, 0.00, 0.00, 0.00, 0.00, 0.00, 0.000, 0.000, 0.000, 17:22:27.907, 1563398547907
237, -18353.62, 0.00, 0.00, 0.00, 0.00, 0.00, 0.00, 0.00, 0.000, 0.000, 0.000, 17:22:27.907, 1563398547907
238, -18380.31, 0.00, 0.00, 0.00, 0.00, 0.00, 0.00, 0.00, 0.098, 0.026, 1.022, 17:22:27.907, 1563398547907
239, -18359.41, 0.00, 0.00, 0.00, 0.00, 0.00, 0.00, 0.00, 0.000, 0.000, 0.000, 17:22:27.907, 1563398547907
240, -18341.55, 0.00, 0.00, 0.00, 0.00, 0.00, 0.00, 0.00, 0.000, 0.000, 0.000, 17:22:27.907, 1563398547907
241, -18355.36, 0.00, 0.00, 0.00, 0.00, 0.00, 0.00, 0.00, 0.000, 0.000, 0.000, 17:22:27.907, 1563398547907
242, -18368.57, 0.00, 0.00, 0.00, 0.00, 0.00, 0.00, 0.00, 0.000, 0.000, 0.000, 17:22:27.907, 1563398547907
243, -18359.41, 0.00, 0.00, 0.00, 0.00, 0.00, 0.00, 0.00, 0.000, 0.000, 0.000, 17:22:27.907, 1563398547907
244, -18338.91, 0.00, 0.00, 0.00, 0.00, 0.00, 0.00, 0.00, 0.000, 0.000, 0.000, 17:22:27.907, 1563398547907
245, -18351.18, 0.00, 0.00, 0.00, 0.00, 0.00, 0.00, 0.00, 0.000, 0.000, 0.000, 17:22:27.907, 1563398547907
246, -18376.75, 0.00, 0.00, 0.00, 0.00, 0.00, 0.00, 0.00, 0.000, 0.000, 0.000, 17:22:27.907, 1563398547907
247, -18348.48, 0.00, 0.00, 0.00, 0.00, 0.00, 0.00, 0.00, 0.000, 0.000, 0.000, 17:22:27.907, 1563398547907
248, -18326.75, 0.00, 0.00, 0.00, 0.00, 0.00, 0.00, 0.00, 0.092, 0.026, 1.016, 17:22:27.907, 1563398547907
249, -18330.96, 0.00, 0.00, 0.00, 0.00, 0.00, 0.00, 0.00, 0.000, 0.000, 0.000, 17:22:27.907, 1563398547907
250, -18382.83, 0.00, 0.00, 0.00, 0.00, 0.00, 0.00, 0.00, 0.000, 0.000, 0.000, 17:22:27.907, 1563398547907
251, -18358.22, 0.00, 0.00, 0.00, 0.00, 0.00, 0.00, 0.00, 0.000, 0.000, 0.000, 17:22:27.907, 1563398547907
252, -18321.97, 0.00, 0.00, 0.00, 0.00, 0.00, 0.00, 0.00, 0.000, 0.000, 0.000, 17:22:27.907, 1563398547907
253, -18319.51, 0.00, 0.00, 0.00, 0.00, 0.00, 0.00, 0.00, 0.000, 0.000, 0.000, 17:22:27.907, 1563398547907
254, -18350.60, 0.00, 0.00, 0.00, 0.00, 0.00, 0.00, 0.00, 0.000, 0.000, 0.000, 17:22:27.907, 1563398547907
255, -18354.04, 0.00, 0.00, 0.00, 0.00, 0.00, 0.00, 0.00, 0.000, 0.000, 0.000, 17:22:27.907, 1563398547907
0, -18334.44, 0.00, 0.00, 0.00, 0.00, 0.00, 0.00, 0.00, 0.000, 0.000, 0.000, 17:22:27.907, 1563398547907
1, -18330.62, 0.00, 0.00, 0.00, 0.00, 0.00, 0.00, 0.00, 0.000, 0.000, 0.000, 17:22:27.907, 1563398547907
2, -18340.10, 0.00, 0.00, 0.00, 0.00, 0.00, 0.00, 0.00, 0.096, 0.026, 1.018, 17:22:27.907, 1563398547907
3, -18352.50, 0.00, 0.00, 0.00, 0.00, 0.00, 0.00, 0.00, 0.000, 0.000, 0.000, 17:22:27.907, 1563398547907
4, -18330.38, 0.00, 0.00, 0.00, 0.00, 0.00, 0.00, 0.00, 0.000, 0.000, 0.000, 17:22:27.907, 1563398547907
5, -18324.74, 0.00, 0.00, 0.00, 0.00, 0.00, 0.00, 0.00, 0.000, 0.000, 0.000, 17:22:27.907, 1563398547907
6, -18347.21, 0.00, 0.00, 0.00, 0.00, 0.00, 0.00, 0.00, 0.000, 0.000, 0.000, 17:22:27.908, 1563398547908
7, -18375.19, 0.00, 0.00, 0.00, 0.00, 0.00, 0.00, 0.00, 0.000, 0.000, 0.000, 17:22:27.908, 1563398547908
8, -18374.18, 0.00, 0.00, 0.00, 0.00, 0.00, 0.00, 0.00, 0.000, 0.000, 0.000, 17:22:27.908, 1563398547908
9, -18332.59, 0.00, 0.00, 0.00, 0.00, 0.00, 0.00, 0.00, 0.000, 0.000, 0.000, 17:22:27.908, 1563398547908
10, -18339.03, 0.00, 0.00, 0.00, 0.00, 0.00, 0.00, 0.00, 0.000, 0.000, 0.000, 17:22:27.908, 1563398547908
11, -18361.94, 0.00, 0.00, 0.00, 0.00, 0.00, 0.00, 0.00, 0.000, 0.000, 0.000, 17:22:27.908, 1563398547908
12, -18345.13, 0.00, 0.00, 0.00, 0.00, 0.00, 0.00, 0.00, 0.102, 0.022, 1.022, 17:22:27.908, 1563398547908
13, -18322.80, 0.00, 0.00, 0.00, 0.00, 0.00, 0.00, 0.00, 0.000, 0.000, 0.000, 17:22:27.908, 1563398547908
14, -18341.64, 0.00, 0.00, 0.00, 0.00, 0.00, 0.00, 0.00, 0.000, 0.000, 0.000, 17:22:27.908, 1563398547908
15, -18368.10, 0.00, 0.00, 0.00, 0.00, 0.00, 0.00, 0.00, 0.000, 0.000, 0.000, 17:22:27.908, 1563398547908
16, -18372.78, 0.00, 0.00, 0.00, 0.00, 0.00, 0.00, 0.00, 0.000, 0.000, 0.000, 17:22:27.908, 1563398547908
17, -18335.72, 0.00, 0.00, 0.00, 0.00, 0.00, 0.00, 0.00, 0.000, 0.000, 0.000, 17:22:27.908, 1563398547908
18, -18335.96, 0.00, 0.00, 0.00, 0.00, 0.00, 0.00, 0.00, 0.000, 0.000, 0.000, 17:22:27.908, 1563398547908
19, -18353.69, 0.00, 0.00, 0.00, 0.00, 0.00, 0.00, 0.00, 0.000, 0.000, 0.000, 17:22:27.908, 1563398547908
20, -18370.12, 0.00, 0.00, 0.00, 0.00, 0.00, 0.00, 0.00, 0.000, 0.000, 0.000, 17:22:27.908, 1563398547908
21, -18329.86, 0.00, 0.00, 0.00, 0.00, 0.00, 0.00, 0.00, 0.000, 0.000, 0.000, 17:22:27.908, 1563398547908
22, -18317.88, 0.00, 0.00, 0.00, 0.00, 0.00, 0.00, 0.00, 0.000, 0.000, 0.000, 17:22:27.908, 1563398547908
23, -18349.15, 0.00, 0.00, 0.00, 0.00, 0.00, 0.00, 0.00, 0.100, 0.022, 1.022, 17:22:27.908, 1563398547908
24, -18363.05, 0.00, 0.00, 0.00, 0.00, 0.00, 0.00, 0.00, 0.000, 0.000, 0.000, 17:22:27.908, 1563398547908
25, -18337.35, 0.00, 0.00, 0.00, 0.00, 0.00, 0.00, 0.00, 0.000, 0.000, 0.000, 17:22:27.908, 1563398547908
26, -18329.01, 0.00, 0.00, 0.00, 0.00, 0.00, 0.00, 0.00, 0.000, 0.000, 0.000, 17:22:27.908, 1563398547908
27, -18380.11, 0.00, 0.00, 0.00, 0.00, 0.00, 0.00, 0.00, 0.000, 0.000, 0.000, 17:22:27.908, 1563398547908
28, -18389.94, 0.00, 0.00, 0.00, 0.00, 0.00, 0.00, 0.00, 0.000, 0.000, 0.000, 17:22:27.908, 1563398547908
29, -18343.61, 0.00, 0.00, 0.00, 0.00, 0.00, 0.00, 0.00, 0.000, 0.000, 0.000, 17:22:27.908, 1563398547908
30, -18332.30, 0.00, 0.00, 0.00, 0.00, 0.00, 0.00, 0.00, 0.000, 0.000, 0.000, 17:22:27.908, 1563398547908
31, -18359.37, 0.00, 0.00, 0.00, 0.00, 0.00, 0.00, 0.00, 0.000, 0.000, 0.000, 17:22:27.908, 1563398547908
32, -18377.16, 0.00, 0.00, 0.00, 0.00, 0.00, 0.00, 0.00, 0.000, 0.000, 0.000, 17:22:27.908, 1563398547908
33, -18361.15, 0.00, 0.00, 0.00, 0.00, 0.00, 0.00, 0.00, 0.100, 0.022, 1.032, 17:22:27.908, 1563398547908
34, -18350.45, 0.00, 0.00, 0.00, 0.00, 0.00, 0.00, 0.00, 0.000, 0.000, 0.000, 17:22:27.908, 1563398547908
35, -18376.04, 0.00, 0.00, 0.00, 0.00, 0.00, 0.00, 0.00, 0.000, 0.000, 0.000, 17:22:27.908, 1563398547908
36, -18397.03, 0.00, 0.00, 0.00, 0.00, 0.00, 0.00, 0.00, 0.000, 0.000, 0.000, 17:22:27.908, 1563398547908
37, -18366.03, 0.00, 0.00, 0.00, 0.00, 0.00, 0.00, 0.00, 0.000, 0.000, 0.000, 17:22:27.908, 1563398547908
38, -18328.25, 0.00, 0.00, 0.00, 0.00, 0.00, 0.00, 0.00, 0.000, 0.000, 0.000, 17:22:27.908, 1563398547908
39, -18367.41, 0.00, 0.00, 0.00, 0.00, 0.00, 0.00, 0.00, 0.000, 0.000, 0.000, 17:22:27.908, 1563398547908
40, -18390.99, 0.00, 0.00, 0.00, 0.00, 0.00, 0.00, 0.00, 0.000, 0.000, 0.000, 17:22:27.908, 1563398547908
41, -18361.26, 0.00, 0.00, 0.00, 0.00, 0.00, 0.00, 0.00, 0.000, 0.000, 0.000, 17:22:27.909, 1563398547909
42, -18344.14, 0.00, 0.00, 0.00, 0.00, 0.00, 0.00, 0.00, 0.000, 0.000, 0.000, 17:22:27.909, 1563398547909
43, -18351.54, 0.00, 0.00, 0.00, 0.00, 0.00, 0.00, 0.00, 0.098, 0.024, 1.026, 17:22:27.909, 1563398547909
44, -18377.69, 0.00, 0.00, 0.00, 0.00, 0.00, 0.00, 0.00, 0.000, 0.000, 0.000, 17:22:27.909, 1563398547909
45, -18381.94, 0.00, 0.00, 0.00, 0.00, 0.00, 0.00, 0.00, 0.000, 0.000, 0.000, 17:22:27.909, 1563398547909
46, -18361.38, 0.00, 0.00, 0.00, 0.00, 0.00, 0.00, 0.00, 0.000, 0.000, 0.000, 17:22:27.909, 1563398547909
47, -18353.84, 0.00, 0.00, 0.00, 0.00, 0.00, 0.00, 0.00, 0.000, 0.000, 0.000, 17:22:27.909, 1563398547909
48, -18362.76, 0.00, 0.00, 0.00, 0.00, 0.00, 0.00, 0.00, 0.000, 0.000, 0.000, 17:22:27.909, 1563398547909
49, -18372.31, 0.00, 0.00, 0.00, 0.00, 0.00, 0.00, 0.00, 0.000, 0.000, 0.000, 17:22:27.909, 1563398547909
50, -18348.03, 0.00, 0.00, 0.00, 0.00, 0.00, 0.00, 0.00, 0.000, 0.000, 0.000, 17:22:27.909, 1563398547909
51, -18346.31, 0.00, 0.00, 0.00, 0.00, 0.00, 0.00, 0.00, 0.000, 0.000, 0.000, 17:22:27.909, 1563398547909
52, -18365.96, 0.00, 0.00, 0.00, 0.00, 0.00, 0.00, 0.00, 0.000, 0.000, 0.000, 17:22:27.909, 1563398547909
53, -18375.93, 0.00, 0.00, 0.00, 0.00, 0.00, 0.00, 0.00, 0.098, 0.022, 1.032, 17:22:27.909, 1563398547909
54, -18350.89, 0.00, 0.00, 0.00, 0.00, 0.00, 0.00, 0.00, 0.000, 0.000, 0.000, 17:22:27.909, 1563398547909
55, -18338.11, 0.00, 0.00, 0.00, 0.00, 0.00, 0.00, 0.00, 0.000, 0.000, 0.000, 17:22:27.909, 1563398547909
56, -18380.40, 0.00, 0.00, 0.00, 0.00, 0.00, 0.00, 0.00, 0.000, 0.000, 0.000, 17:22:27.909, 1563398547909
57, -18393.03, 0.00, 0.00, 0.00, 0.00, 0.00, 0.00, 0.00, 0.000, 0.000, 0.000, 17:22:27.909, 1563398547909
58, -18371.05, 0.00, 0.00, 0.00, 0.00, 0.00, 0.00, 0.00, 0.000, 0.000, 0.000, 17:22:27.909, 1563398547909
59, -18341.21, 0.00, 0.00, 0.00, 0.00, 0.00, 0.00, 0.00, 0.000, 0.000, 0.000, 17:22:28.388, 1563398548388
60, -18360.17, 0.00, 0.00, 0.00, 0.00, 0.00, 0.00, 0.00, 0.000, 0.000, 0.000, 17:22:28.388, 1563398548388
61, -18388.04, 0.00, 0.00, 0.00, 0.00, 0.00, 0.00, 0.00, 0.000, 0.000, 0.000, 17:22:28.388, 1563398548388
62, -18381.52, 0.00, 0.00, 0.00, 0.00, 0.00, 0.00, 0.00, 0.000, 0.000, 0.000, 17:22:28.388, 1563398548388
63, -18341.93, 0.00, 0.00, 0.00, 0.00, 0.00, 0.00, 0.00, 0.098, 0.024, 1.030, 17:22:28.388, 1563398548388
64, -18372.02, 0.00, 0.00, 0.00, 0.00, 0.00, 0.00, 0.00, 0.000, 0.000, 0.000, 17:22:28.388, 1563398548388
65, -18393.34, 0.00, 0.00, 0.00, 0.00, 0.00, 0.00, 0.00, 0.000, 0.000, 0.000, 17:22:28.388, 1563398548388
66, -18355.16, 0.00, 0.00, 0.00, 0.00, 0.00, 0.00, 0.00, 0.000, 0.000, 0.000, 17:22:28.388, 1563398548388
67, -18320.85, 0.00, 0.00, 0.00, 0.00, 0.00, 0.00, 0.00, 0.000, 0.000, 0.000, 17:22:28.388, 1563398548388
68, -18333.77, 0.00, 0.00, 0.00, 0.00, 0.00, 0.00, 0.00, 0.000, 0.000, 0.000, 17:22:28.388, 1563398548388
69, -18363.34, 0.00, 0.00, 0.00, 0.00, 0.00, 0.00, 0.00, 0.000, 0.000, 0.000, 17:22:28.388, 1563398548388
70, -18360.88, 0.00, 0.00, 0.00, 0.00, 0.00, 0.00, 0.00, 0.000, 0.000, 0.000, 17:22:28.388, 1563398548388
71, -18325.17, 0.00, 0.00, 0.00, 0.00, 0.00, 0.00, 0.00, 0.000, 0.000, 0.000, 17:22:28.388, 1563398548388
72, -18335.11, 0.00, 0.00, 0.00, 0.00, 0.00, 0.00, 0.00, 0.000, 0.000, 0.000, 17:22:28.388, 1563398548388
73, -18367.34, 0.00, 0.00, 0.00, 0.00, 0.00, 0.00, 0.00, 0.102, 0.026, 1.030, 17:22:28.388, 1563398548388
74, -18361.98, 0.00, 0.00, 0.00, 0.00, 0.00, 0.00, 0.00, 0.000, 0.000, 0.000, 17:22:28.388, 1563398548388
75, -18338.98, 0.00, 0.00, 0.00, 0.00, 0.00, 0.00, 0.00, 0.000, 0.000, 0.000, 17:22:28.388, 1563398548388
76, -18327.27, 0.00, 0.00, 0.00, 0.00, 0.00, 0.00, 0.00, 0.000, 0.000, 0.000, 17:22:28.388, 1563398548388
77, -18375.73, 0.00, 0.00, 0.00, 0.00, 0.00, 0.00, 0.00, 0.000, 0.000, 0.000, 17:22:28.388, 1563398548388
78, -18367.30, 0.00, 0.00, 0.00, 0.00, 0.00, 0.00, 0.00, 0.000, 0.000, 0.000, 17:22:28.388, 1563398548388
79, -18326.55, 0.00, 0.00, 0.00, 0.00, 0.00, 0.00, 0.00, 0.000, 0.000, 0.000, 17:22:28.388, 1563398548388
80, -18322.75, 0.00, 0.00, 0.00, 0.00, 0.00, 0.00, 0.00, 0.000, 0.000, 0.000, 17:22:28.388, 1563398548388
81, -18361.02, 0.00, 0.00, 0.00, 0.00, 0.00, 0.00, 0.00, 0.000, 0.000, 0.000, 17:22:28.388, 1563398548388
82, -18376.73, 0.00, 0.00, 0.00, 0.00, 0.00, 0.00, 0.00, 0.000, 0.000, 0.000, 17:22:28.389, 1563398548389
83, -18351.09, 0.00, 0.00, 0.00, 0.00, 0.00, 0.00, 0.00, 0.000, 0.000, 0.000, 17:22:28.389, 1563398548389
84, -18333.50, 0.00, 0.00, 0.00, 0.00, 0.00, 0.00, 0.00, 0.094, 0.026, 1.028, 17:22:28.389, 1563398548389
85, -18355.97, 0.00, 0.00, 0.00, 0.00, 0.00, 0.00, 0.00, 0.000, 0.000, 0.000, 17:22:28.389, 1563398548389
86, -18392.47, 0.00, 0.00, 0.00, 0.00, 0.00, 0.00, 0.00, 0.000, 0.000, 0.000, 17:22:28.389, 1563398548389
87, -18359.86, 0.00, 0.00, 0.00, 0.00, 0.00, 0.00, 0.00, 0.000, 0.000, 0.000, 17:22:28.389, 1563398548389
88, -18329.14, 0.00, 0.00, 0.00, 0.00, 0.00, 0.00, 0.00, 0.000, 0.000, 0.000, 17:22:28.389, 1563398548389
89, -18358.07, 0.00, 0.00, 0.00, 0.00, 0.00, 0.00, 0.00, 0.000, 0.000, 0.000, 17:22:28.389, 1563398548389
90, -18401.23, 0.00, 0.00, 0.00, 0.00, 0.00, 0.00, 0.00, 0.000, 0.000, 0.000, 17:22:28.389, 1563398548389
91, -18379.08, 0.00, 0.00, 0.00, 0.00, 0.00, 0.00, 0.00, 0.000, 0.000, 0.000, 17:22:28.389, 1563398548389
92, -18335.61, 0.00, 0.00, 0.00, 0.00, 0.00, 0.00, 0.00, 0.000, 0.000, 0.000, 17:22:28.389, 1563398548389
93, -18349.78, 0.00, 0.00, 0.00, 0.00, 0.00, 0.00, 0.00, 0.000, 0.000, 0.000, 17:22:28.389, 1563398548389
94, -18380.64, 0.00, 0.00, 0.00, 0.00, 0.00, 0.00, 0.00, 0.096, 0.028, 1.034, 17:22:28.389, 1563398548389
95, -18374.79, 0.00, 0.00, 0.00, 0.00, 0.00, 0.00, 0.00, 0.000, 0.000, 0.000, 17:22:28.389, 1563398548389
96, -18343.38, 0.00, 0.00, 0.00, 0.00, 0.00, 0.00, 0.00, 0.000, 0.000, 0.000, 17:22:28.389, 1563398548389
97, -18352.19, 0.00, 0.00, 0.00, 0.00, 0.00, 0.00, 0.00, 0.000, 0.000, 0.000, 17:22:28.389, 1563398548389
98, -18389.14, 0.00, 0.00, 0.00, 0.00, 0.00, 0.00, 0.00, 0.000, 0.000, 0.000, 17:22:28.389, 1563398548389
99, -18389.23, 0.00, 0.00, 0.00, 0.00, 0.00, 0.00, 0.00, 0.000, 0.000, 0.000, 17:22:28.389, 1563398548389
