%OpenBCI Raw EEG Data
%Number of channels = 8
%Sample Rate = 250.0 Hz
%First Column = SampleIndex
%Last Column = Timestamp 
%Other Columns = EEG data in microvolts followed by Accel Data (in G) interleaved with Aux Data
0, 0.00, 0.00, 0.00, 0.00, 0.00, 0.00, 0.00, 0.00, 0.088, 0.044, 1.026, 15:02:27.510, 1563390147510
1, -29119.99, -7835.40, -38337.51, 0.00, 0.00, 0.00, 0.00, 0.00, 0.000, 0.000, 0.000, 15:02:27.526, 1563390147526
2, -29258.19, -7991.40, -38470.61, 0.00, 0.00, 0.00, 0.00, 0.00, 0.000, 0.000, 0.000, 15:02:28.007, 1563390148007
3, -28871.90, -7637.97, -38093.32, 0.00, 0.00, 0.00, 0.00, 0.00, 0.000, 0.000, 0.000, 15:02:28.007, 1563390148007
4, -28734.26, -7504.17, -37967.03, 0.00, 0.00, 0.00, 0.00, 0.00, 0.000, 0.000, 0.000, 15:02:28.007, 1563390148007
5, -29051.97, -7811.76, -38296.63, 0.00, 0.00, 0.00, 0.00, 0.00, 0.000, 0.000, 0.000, 15:02:28.007, 1563390148007
6, -29240.08, -8015.67, -38486.33, 0.00, 0.00, 0.00, 0.00, 0.00, 0.000, 0.000, 0.000, 15:02:28.007, 1563390148007
7, -28929.53, -7727.56, -38168.38, 0.00, 0.00, 0.00, 0.00, 0.00, 0.000, 0.000, 0.000, 15:02:28.007, 1563390148007
8, -28666.31, -7478.80, -37914.64, 0.00, 0.00, 0.00, 0.00, 0.00, 0.084, 0.046, 1.026, 15:02:28.008, 1563390148008
9, -28934.76, -7735.49, -38182.12, 0.00, 0.00, 0.00, 0.00, 0.00, 0.000, 0.000, 0.000, 15:02:28.008, 1563390148008
10, -29194.48, -7980.33, -38441.51, 0.00, 0.00, 0.00, 0.00, 0.00, 0.000, 0.000, 0.000, 15:02:28.008, 1563390148008
11, -28936.72, -7739.20, -38193.03, 0.00, 0.00, 0.00, 0.00, 0.00, 0.000, 0.000, 0.000, 15:02:28.008, 1563390148008
12, -28600.02, -7420.98, -37865.95, 0.00, 0.00, 0.00, 0.00, 0.00, 0.000, 0.000, 0.000, 15:02:28.008, 1563390148008
13, -28836.79, -7629.10, -38090.37, 0.00, 0.00, 0.00, 0.00, 0.00, 0.000, 0.000, 0.000, 15:02:28.008, 1563390148008
14, -29145.91, -7919.87, -38387.60, 0.00, 0.00, 0.00, 0.00, 0.00, 0.000, 0.000, 0.000, 15:02:28.008, 1563390148008
15, -29006.42, -7799.15, -38257.71, 0.00, 0.00, 0.00, 0.00, 0.00, 0.000, 0.000, 0.000, 15:02:28.008, 1563390148008
16, -28600.35, -7412.82, -37849.77, 0.00, 0.00, 0.00, 0.00, 0.00, 0.000, 0.000, 0.000, 15:02:28.008, 1563390148008
17, -28706.63, -7500.44, -37962.87, 0.00, 0.00, 0.00, 0.00, 0.00, 0.000, 0.000, 0.000, 15:02:28.008, 1563390148008
18, -29053.71, -7821.14, -38301.59, 0.00, 0.00, 0.00, 0.00, 0.00, 0.088, 0.044, 1.030, 15:02:28.008, 1563390148008
19, -28978.86, -7751.32, -38234.42, 0.00, 0.00, 0.00, 0.00, 0.00, 0.000, 0.000, 0.000, 15:02:28.008, 1563390148008
20, -28564.59, -7362.87, -37818.01, 0.00, 0.00, 0.00, 0.00, 0.00, 0.000, 0.000, 0.000, 15:02:28.008, 1563390148008
21, -28627.22, -7426.68, -37881.09, 0.00, 0.00, 0.00, 0.00, 0.00, 0.000, 0.000, 0.000, 15:02:28.008, 1563390148008
22, -28951.12, -7722.19, -38198.95, 0.00, 0.00, 0.00, 0.00, 0.00, 0.000, 0.000, 0.000, 15:02:28.008, 1563390148008
23, -29008.70, -7774.32, -38259.12, 0.00, 0.00, 0.00, 0.00, 0.00, 0.000, 0.000, 0.000, 15:02:28.008, 1563390148008
24, -28603.12, -7399.92, -37865.95, 0.00, 0.00, 0.00, 0.00, 0.00, 0.000, 0.000, 0.000, 15:02:28.008, 1563390148008
25, -28532.72, -7333.81, -37797.52, 0.00, 0.00, 0.00, 0.00, 0.00, 0.000, 0.000, 0.000, 15:02:28.008, 1563390148008
26, -28881.25, -7676.21, -38146.69, 0.00, 0.00, 0.00, 0.00, 0.00, 0.000, 0.000, 0.000, 15:02:28.008, 1563390148008
27, -29009.28, -7831.67, -38276.45, 0.00, 0.00, 0.00, 0.00, 0.00, 0.000, 0.000, 0.000, 15:02:28.008, 1563390148008
28, -28618.66, -7460.01, -37892.02, 0.00, 0.00, 0.00, 0.00, 0.00, 0.086, 0.050, 1.030, 15:02:28.008, 1563390148008
29, -28482.58, -7286.18, -37755.87, 0.00, 0.00, 0.00, 0.00, 0.00, 0.000, 0.000, 0.000, 15:02:28.008, 1563390148008
30, -28805.09, -7604.17, -38094.01, 0.00, 0.00, 0.00, 0.00, 0.00, 0.000, 0.000, 0.000, 15:02:28.008, 1563390148008
31, -29019.54, -7832.65, -38312.48, 0.00, 0.00, 0.00, 0.00, 0.00, 0.000, 0.000, 0.000, 15:02:28.008, 1563390148008
32, -28724.83, -7561.28, -38018.57, 0.00, 0.00, 0.00, 0.00, 0.00, 0.000, 0.000, 0.000, 15:02:28.008, 1563390148008
33, -28520.31, -7371.72, -37817.27, 0.00, 0.00, 0.00, 0.00, 0.00, 0.000, 0.000, 0.000, 15:02:28.008, 1563390148008
34, -28810.88, -7651.14, -38116.52, 0.00, 0.00, 0.00, 0.00, 0.00, 0.000, 0.000, 0.000, 15:02:28.008, 1563390148008
35, -29090.04, -7924.79, -38387.87, 0.00, 0.00, 0.00, 0.00, 0.00, 0.000, 0.000, 0.000, 15:02:28.008, 1563390148008
36, -28881.63, -7736.23, -38181.94, 0.00, 0.00, 0.00, 0.00, 0.00, 0.000, 0.000, 0.000, 15:02:28.008, 1563390148008
37, -28587.46, -7449.37, -37889.63, 0.00, 0.00, 0.00, 0.00, 0.00, 0.000, 0.000, 0.000, 15:02:28.008, 1563390148008
38, -28845.91, -7673.69, -38141.46, 0.00, 0.00, 0.00, 0.00, 0.00, 0.084, 0.048, 1.032, 15:02:28.008, 1563390148008
39, -29142.07, -7940.19, -38423.34, 0.00, 0.00, 0.00, 0.00, 0.00, 0.000, 0.000, 0.000, 15:02:28.008, 1563390148008
40, -29048.04, -7852.55, -38320.37, 0.00, 0.00, 0.00, 0.00, 0.00, 0.000, 0.000, 0.000, 15:02:28.008, 1563390148008
41, -28674.81, -7491.08, -37947.16, 0.00, 0.00, 0.00, 0.00, 0.00, 0.000, 0.000, 0.000, 15:02:28.008, 1563390148008
42, -28836.70, -7632.32, -38107.20, 0.00, 0.00, 0.00, 0.00, 0.00, 0.000, 0.000, 0.000, 15:02:28.008, 1563390148008
43, -29185.65, -7962.29, -38474.48, 0.00, 0.00, 0.00, 0.00, 0.00, 0.000, 0.000, 0.000, 15:02:28.008, 1563390148008
44, -29150.50, -7938.24, -38426.27, 0.00, 0.00, 0.00, 0.00, 0.00, 0.000, 0.000, 0.000, 15:02:28.008, 1563390148008
45, -28734.44, -7561.80, -38005.00, 0.00, 0.00, 0.00, 0.00, 0.00, 0.000, 0.000, 0.000, 15:02:28.008, 1563390148008
46, -28796.29, -7606.97, -38072.86, 0.00, 0.00, 0.00, 0.00, 0.00, 0.000, 0.000, 0.000, 15:02:28.009, 1563390148009
47, -29146.76, -7918.31, -38414.64, 0.00, 0.00, 0.00, 0.00, 0.00, 0.000, 0.000, 0.000, 15:02:28.009, 1563390148009
48, -29197.52, -7983.04, -38460.09, 0.00, 0.00, 0.00, 0.00, 0.00, 0.000, 0.000, 0.000, 15:02:28.009, 1563390148009
49, -28791.77, -7596.08, -38074.03, 0.00, 0.00, 0.00, 0.00, 0.00, 0.086, 0.046, 1.032, 15:02:28.009, 1563390148009
50, -28783.26, -7598.88, -38059.05, 0.00, 0.00, 0.00, 0.00, 0.00, 0.000, 0.000, 0.000, 15:02:28.009, 1563390148009
51, -29108.63, -7905.72, -38389.93, 0.00, 0.00, 0.00, 0.00, 0.00, 0.000, 0.000, 0.000, 15:02:28.009, 1563390148009
52, -29235.21, -8035.50, -38506.54, 0.00, 0.00, 0.00, 0.00, 0.00, 0.000, 0.000, 0.000, 15:02:28.009, 1563390148009
53, -28843.38, -7677.80, -38111.67, 0.00, 0.00, 0.00, 0.00, 0.00, 0.000, 0.000, 0.000, 15:02:28.009, 1563390148009
54, -28675.19, -7520.13, -37970.52, 0.00, 0.00, 0.00, 0.00, 0.00, 0.000, 0.000, 0.000, 15:02:28.009, 1563390148009
55, -29020.95, -7845.19, -38321.08, 0.00, 0.00, 0.00, 0.00, 0.00, 0.000, 0.000, 0.000, 15:02:28.009, 1563390148009
56, -29212.68, -8034.94, -38511.18, 0.00, 0.00, 0.00, 0.00, 0.00, 0.000, 0.000, 0.000, 15:02:28.009, 1563390148009
57, -28918.11, -7762.45, -38210.62, 0.00, 0.00, 0.00, 0.00, 0.00, 0.000, 0.000, 0.000, 15:02:28.009, 1563390148009
58, -28663.56, -7516.49, -37965.02, 0.00, 0.00, 0.00, 0.00, 0.00, 0.000, 0.000, 0.000, 15:02:28.009, 1563390148009
59, -28941.96, -7773.78, -38239.81, 0.00, 0.00, 0.00, 0.00, 0.00, 0.086, 0.044, 1.026, 15:02:28.009, 1563390148009
60, -29216.88, -8035.14, -38524.71, 0.00, 0.00, 0.00, 0.00, 0.00, 0.000, 0.000, 0.000, 15:02:28.009, 1563390148009
61, -28970.50, -7802.41, -38280.98, 0.00, 0.00, 0.00, 0.00, 0.00, 0.000, 0.000, 0.000, 15:02:28.009, 1563390148009
62, -28637.81, -7466.31, -37934.78, 0.00, 0.00, 0.00, 0.00, 0.00, 0.000, 0.000, 0.000, 15:02:28.009, 1563390148009
63, -28912.34, -7713.32, -38206.44, 0.00, 0.00, 0.00, 0.00, 0.00, 0.000, 0.000, 0.000, 15:02:28.009, 1563390148009
64, -29217.46, -8006.35, -38507.05, 0.00, 0.00, 0.00, 0.00, 0.00, 0.000, 0.000, 0.000, 15:02:28.009, 1563390148009
65, -29062.99, -7864.75, -38350.09, 0.00, 0.00, 0.00, 0.00, 0.00, 0.000, 0.000, 0.000, 15:02:28.009, 1563390148009
66, -28672.57, -7485.49, -37974.07, 0.00, 0.00, 0.00, 0.00, 0.00, 0.000, 0.000, 0.000, 15:02:28.009, 1563390148009
67, -28827.18, -7617.85, -38112.56, 0.00, 0.00, 0.00, 0.00, 0.00, 0.000, 0.000, 0.000, 15:02:28.009, 1563390148009
68, -29174.52, -7947.27, -38465.18, 0.00, 0.00, 0.00, 0.00, 0.00, 0.000, 0.000, 0.000, 15:02:28.009, 1563390148009
69, -29108.54, -7895.28, -38400.88, 0.00, 0.00, 0.00, 0.00, 0.00, 0.086, 0.042, 1.026, 15:02:28.009, 1563390148009
70, -28712.38, -7521.12, -38001.25, 0.00, 0.00, 0.00, 0.00, 0.00, 0.000, 0.000, 0.000, 15:02:28.009, 1563390148009
71, -28783.23, -7586.07, -38058.96, 0.00, 0.00, 0.00, 0.00, 0.00, 0.000, 0.000, 0.000, 15:02:28.009, 1563390148009
72, -29141.89, -7926.60, -38409.17, 0.00, 0.00, 0.00, 0.00, 0.00, 0.000, 0.000, 0.000, 15:02:28.009, 1563390148009
73, -29185.70, -7991.66, -38467.48, 0.00, 0.00, 0.00, 0.00, 0.00, 0.000, 0.000, 0.000, 15:02:28.009, 1563390148009
74, -28779.61, -7634.44, -38064.71, 0.00, 0.00, 0.00, 0.00, 0.00, 0.000, 0.000, 0.000, 15:02:28.009, 1563390148009
75, -28726.04, -7593.47, -38001.59, 0.00, 0.00, 0.00, 0.00, 0.00, 0.000, 0.000, 0.000, 15:02:28.009, 1563390148009
76, -29076.29, -7906.84, -38346.20, 0.00, 0.00, 0.00, 0.00, 0.00, 0.000, 0.000, 0.000, 15:02:28.009, 1563390148009
77, -29220.37, -8062.68, -38507.09, 0.00, 0.00, 0.00, 0.00, 0.00, 0.000, 0.000, 0.000, 15:02:28.009, 1563390148009
78, -28824.34, -7675.95, -38127.25, 0.00, 0.00, 0.00, 0.00, 0.00, 0.000, 0.000, 0.000, 15:02:28.009, 1563390148009
79, -28674.11, -7505.94, -37975.07, 0.00, 0.00, 0.00, 0.00, 0.00, 0.088, 0.040, 1.018, 15:02:28.009, 1563390148009
80, -29033.04, -7838.22, -38343.32, 0.00, 0.00, 0.00, 0.00, 0.00, 0.000, 0.000, 0.000, 15:02:28.009, 1563390148009
81, -29225.55, -8023.72, -38527.39, 0.00, 0.00, 0.00, 0.00, 0.00, 0.000, 0.000, 0.000, 15:02:28.009, 1563390148009
82, -28909.70, -7735.07, -38219.40, 0.00, 0.00, 0.00, 0.00, 0.00, 0.000, 0.000, 0.000, 15:02:28.009, 1563390148009
83, -28667.36, -7496.73, -37984.69, 0.00, 0.00, 0.00, 0.00, 0.00, 0.000, 0.000, 0.000, 15:02:28.010, 1563390148010
84, -28967.10, -7770.67, -38276.63, 0.00, 0.00, 0.00, 0.00, 0.00, 0.000, 0.000, 0.000, 15:02:28.010, 1563390148010
85, -29223.61, -8011.25, -38526.98, 0.00, 0.00, 0.00, 0.00, 0.00, 0.000, 0.000, 0.000, 15:02:28.010, 1563390148010
86, -28979.42, -7782.83, -38283.82, 0.00, 0.00, 0.00, 0.00, 0.00, 0.000, 0.000, 0.000, 15:02:28.010, 1563390148010
87, -28637.03, -7453.17, -37934.84, 0.00, 0.00, 0.00, 0.00, 0.00, 0.000, 0.000, 0.000, 15:02:28.010, 1563390148010
88, -28881.38, -7679.90, -38203.31, 0.00, 0.00, 0.00, 0.00, 0.00, 0.000, 0.000, 0.000, 15:02:28.010, 1563390148010
89, -29197.46, -7983.98, -38504.16, 0.00, 0.00, 0.00, 0.00, 0.00, 0.084, 0.044, 1.022, 15:02:28.010, 1563390148010
90, -29078.86, -7875.59, -38372.11, 0.00, 0.00, 0.00, 0.00, 0.00, 0.000, 0.000, 0.000, 15:02:28.010, 1563390148010
91, -28691.50, -7503.15, -37993.29, 0.00, 0.00, 0.00, 0.00, 0.00, 0.000, 0.000, 0.000, 15:02:28.010, 1563390148010
92, -28835.27, -7630.80, -38137.08, 0.00, 0.00, 0.00, 0.00, 0.00, 0.000, 0.000, 0.000, 15:02:28.010, 1563390148010
93, -29164.69, -7950.25, -38448.44, 0.00, 0.00, 0.00, 0.00, 0.00, 0.000, 0.000, 0.000, 15:02:28.010, 1563390148010
94, -29095.49, -7903.93, -38397.10, 0.00, 0.00, 0.00, 0.00, 0.00, 0.000, 0.000, 0.000, 15:02:28.010, 1563390148010
95, -28667.47, -7499.05, -37988.62, 0.00, 0.00, 0.00, 0.00, 0.00, 0.000, 0.000, 0.000, 15:02:28.010, 1563390148010
96, -28739.65, -7574.16, -38056.26, 0.00, 0.00, 0.00, 0.00, 0.00, 0.000, 0.000, 0.000, 15:02:28.010, 1563390148010
97, -29103.24, -7945.71, -38402.06, 0.00, 0.00, 0.00, 0.00, 0.00, 0.000, 0.000, 0.000, 15:02:28.010, 1563390148010
98, -29133.87, -7962.85, -38444.11, 0.00, 0.00, 0.00, 0.00, 0.00, 0.000, 0.000, 0.000, 15:02:28.010, 1563390148010
99, -28706.17, -7551.42, -38024.83, 0.00, 0.00, 0.00, 0.00, 0.00, 0.000, 0.000, 0.000, 15:02:28.010, 1563390148010
100, -28658.78, -7511.68, -37979.17, 0.00, 0.00, 0.00, 0.00, 0.00, 0.080, 0.038, 1.024, 15:02:28.010, 1563390148010
101, -29011.09, -7860.46, -38326.22, 0.00, 0.00, 0.00, 0.00, 0.00, 0.000, 0.000, 0.000, 15:02:28.010, 1563390148010
102, -29143.57, -7994.46, -38457.36, 0.00, 0.00, 0.00, 0.00, 0.00, 0.000, 0.000, 0.000, 15:02:28.010, 1563390148010
103, -28763.88, -7602.70, -38080.38, 0.00, 0.00, 0.00, 0.00, 0.00, 0.000, 0.000, 0.000, 15:02:28.010, 1563390148010
104, -28606.74, -7440.60, -37932.79, 0.00, 0.00, 0.00, 0.00, 0.00, 0.000, 0.000, 0.000, 15:02:28.010, 1563390148010
105, -28959.86, -7769.13, -38290.10, 0.00, 0.00, 0.00, 0.00, 0.00, 0.000, 0.000, 0.000, 15:02:28.010, 1563390148010
106, -29178.05, -7978.77, -38490.95, 0.00, 0.00, 0.00, 0.00, 0.00, 0.000, 0.000, 0.000, 15:02:28.010, 1563390148010
107, -28882.01, -7695.19, -38182.68, 0.00, 0.00, 0.00, 0.00, 0.00, 0.000, 0.000, 0.000, 15:02:28.010, 1563390148010
108, -28662.67, -7477.82, -37983.41, 0.00, 0.00, 0.00, 0.00, 0.00, 0.000, 0.000, 0.000, 15:02:28.010, 1563390148010
109, -28978.46, -7768.71, -38290.84, 0.00, 0.00, 0.00, 0.00, 0.00, 0.000, 0.000, 0.000, 15:02:28.010, 1563390148010
110, -29230.63, -8011.89, -38544.11, 0.00, 0.00, 0.00, 0.00, 0.00, 0.082, 0.044, 1.024, 15:02:28.010, 1563390148010
111, -28950.80, -7758.98, -38251.93, 0.00, 0.00, 0.00, 0.00, 0.00, 0.000, 0.000, 0.000, 15:02:28.010, 1563390148010
112, -28656.46, -7474.62, -37956.01, 0.00, 0.00, 0.00, 0.00, 0.00, 0.000, 0.000, 0.000, 15:02:28.010, 1563390148010
113, -28928.56, -7720.07, -38220.39, 0.00, 0.00, 0.00, 0.00, 0.00, 0.000, 0.000, 0.000, 15:02:28.010, 1563390148010
114, -29248.49, -8035.09, -38539.93, 0.00, 0.00, 0.00, 0.00, 0.00, 0.000, 0.000, 0.000, 15:02:28.010, 1563390148010
115, -29104.23, -7909.54, -38398.11, 0.00, 0.00, 0.00, 0.00, 0.00, 0.000, 0.000, 0.000, 15:02:28.010, 1563390148010
116, -28710.90, -7540.63, -38007.78, 0.00, 0.00, 0.00, 0.00, 0.00, 0.000, 0.000, 0.000, 15:02:28.010, 1563390148010
117, -28868.04, -7695.12, -38162.41, 0.00, 0.00, 0.00, 0.00, 0.00, 0.000, 0.000, 0.000, 15:02:28.010, 1563390148010
118, -29212.66, -8024.43, -38509.73, 0.00, 0.00, 0.00, 0.00, 0.00, 0.000, 0.000, 0.000, 15:02:28.010, 1563390148010
119, -29122.56, -7945.35, -38433.13, 0.00, 0.00, 0.00, 0.00, 0.00, 0.000, 0.000, 0.000, 15:02:28.010, 1563390148010
120, -28725.88, -7579.79, -38037.04, 0.00, 0.00, 0.00, 0.00, 0.00, 0.080, 0.044, 1.022, 15:02:28.011, 1563390148011
121, -28808.36, -7649.12, -38122.29, 0.00, 0.00, 0.00, 0.00, 0.00, 0.000, 0.000, 0.000, 15:02:28.011, 1563390148011
122, -29170.72, -7977.00, -38479.29, 0.00, 0.00, 0.00, 0.00, 0.00, 0.000, 0.000, 0.000, 15:02:28.488, 1563390148488
123, -29203.20, -8033.82, -38510.64, 0.00, 0.00, 0.00, 0.00, 0.00, 0.000, 0.000, 0.000, 15:02:28.489, 1563390148489
124, -28786.74, -7649.84, -38103.49, 0.00, 0.00, 0.00, 0.00, 0.00, 0.000, 0.000, 0.000, 15:02:28.489, 1563390148489
125, -28731.74, -7582.63, -38044.43, 0.00, 0.00, 0.00, 0.00, 0.00, 0.000, 0.000, 0.000, 15:02:28.489, 1563390148489
126, -29033.44, -7846.02, -38343.72, 0.00, 0.00, 0.00, 0.00, 0.00, 0.000, 0.000, 0.000, 15:02:28.489, 1563390148489
127, -29040.48, -7846.11, -38347.16, 0.00, 0.00, 0.00, 0.00, 0.00, 0.000, 0.000, 0.000, 15:02:28.489, 1563390148489
128, -28509.92, -7336.58, -37811.26, 0.00, 0.00, 0.00, 0.00, 0.00, 0.000, 0.000, 0.000, 15:02:28.489, 1563390148489
129, -28172.67, -7002.11, -37492.64, 0.00, 0.00, 0.00, 0.00, 0.00, 0.000, 0.000, 0.000, 15:02:28.489, 1563390148489
130, -28334.88, -7145.65, -37656.43, 0.00, 0.00, 0.00, 0.00, 0.00, 0.082, 0.040, 1.018, 15:02:28.489, 1563390148489
131, -28430.32, -7223.32, -37744.79, 0.00, 0.00, 0.00, 0.00, 0.00, 0.000, 0.000, 0.000, 15:02:28.489, 1563390148489
132, -28165.74, -6966.35, -37472.72, 0.00, 0.00, 0.00, 0.00, 0.00, 0.000, 0.000, 0.000, 15:02:28.489, 1563390148489
133, -28100.61, -6899.71, -37406.18, 0.00, 0.00, 0.00, 0.00, 0.00, 0.000, 0.000, 0.000, 15:02:28.489, 1563390148489
134, -28691.35, -7458.87, -37988.84, 0.00, 0.00, 0.00, 0.00, 0.00, 0.000, 0.000, 0.000, 15:02:28.489, 1563390148489
135, -29211.09, -7970.99, -38497.35, 0.00, 0.00, 0.00, 0.00, 0.00, 0.000, 0.000, 0.000, 15:02:28.489, 1563390148489
136, -29080.94, -7861.98, -38362.10, 0.00, 0.00, 0.00, 0.00, 0.00, 0.000, 0.000, 0.000, 15:02:28.489, 1563390148489
137, -28744.45, -7529.72, -38022.46, 0.00, 0.00, 0.00, 0.00, 0.00, 0.000, 0.000, 0.000, 15:02:28.489, 1563390148489
138, -28952.28, -7708.96, -38226.76, 0.00, 0.00, 0.00, 0.00, 0.00, 0.000, 0.000, 0.000, 15:02:28.489, 1563390148489
139, -29251.10, -7997.50, -38522.38, 0.00, 0.00, 0.00, 0.00, 0.00, 0.000, 0.000, 0.000, 15:02:28.489, 1563390148489
140, -29087.64, -7860.82, -38351.28, 0.00, 0.00, 0.00, 0.00, 0.00, 0.084, 0.040, 1.024, 15:02:28.489, 1563390148489
141, -28709.09, -7505.47, -37985.25, 0.00, 0.00, 0.00, 0.00, 0.00, 0.000, 0.000, 0.000, 15:02:28.489, 1563390148489
142, -28889.96, -7663.83, -38160.46, 0.00, 0.00, 0.00, 0.00, 0.00, 0.000, 0.000, 0.000, 15:02:28.489, 1563390148489
143, -29202.80, -7955.97, -38480.29, 0.00, 0.00, 0.00, 0.00, 0.00, 0.000, 0.000, 0.000, 15:02:28.489, 1563390148489
144, -29136.79, -7916.25, -38415.05, 0.00, 0.00, 0.00, 0.00, 0.00, 0.000, 0.000, 0.000, 15:02:28.489, 1563390148489
145, -28712.47, -7515.37, -38002.61, 0.00, 0.00, 0.00, 0.00, 0.00, 0.000, 0.000, 0.000, 15:02:28.489, 1563390148489
146, -28779.84, -7572.52, -38073.47, 0.00, 0.00, 0.00, 0.00, 0.00, 0.000, 0.000, 0.000, 15:02:28.489, 1563390148489
147, -29150.85, -7939.83, -38432.41, 0.00, 0.00, 0.00, 0.00, 0.00, 0.000, 0.000, 0.000, 15:02:28.489, 1563390148489
148, -29161.22, -7960.31, -38441.45, 0.00, 0.00, 0.00, 0.00, 0.00, 0.000, 0.000, 0.000, 15:02:28.489, 1563390148489
149, -28750.04, -7568.81, -38043.43, 0.00, 0.00, 0.00, 0.00, 0.00, 0.000, 0.000, 0.000, 15:02:28.489, 1563390148489
150, -28698.37, -7502.99, -38022.35, 0.00, 0.00, 0.00, 0.00, 0.00, 0.082, 0.038, 1.030, 15:02:28.489, 1563390148489
151, -29047.34, -7829.39, -38367.21, 0.00, 0.00, 0.00, 0.00, 0.00, 0.000, 0.000, 0.000, 15:02:28.489, 1563390148489
152, -29166.28, -7946.80, -38476.40, 0.00, 0.00, 0.00, 0.00, 0.00, 0.000, 0.000, 0.000, 15:02:28.489, 1563390148489
153, -28793.54, -7592.33, -38089.70, 0.00, 0.00, 0.00, 0.00, 0.00, 0.000, 0.000, 0.000, 15:02:28.490, 1563390148490
154, -28654.69, -7456.41, -37957.62, 0.00, 0.00, 0.00, 0.00, 0.00, 0.000, 0.000, 0.000, 15:02:28.490, 1563390148490
155, -29006.26, -7793.45, -38304.32, 0.00, 0.00, 0.00, 0.00, 0.00, 0.000, 0.000, 0.000, 15:02:28.490, 1563390148490
156, -29182.91, -7947.72, -38473.97, 0.00, 0.00, 0.00, 0.00, 0.00, 0.000, 0.000, 0.000, 15:02:28.490, 1563390148490
157, -28845.91, -7630.93, -38148.50, 0.00, 0.00, 0.00, 0.00, 0.00, 0.000, 0.000, 0.000, 15:02:28.490, 1563390148490
158, -28606.48, -7388.93, -37906.86, 0.00, 0.00, 0.00, 0.00, 0.00, 0.000, 0.000, 0.000, 15:02:28.490, 1563390148490
159, -28882.45, -7646.29, -38174.36, 0.00, 0.00, 0.00, 0.00, 0.00, 0.000, 0.000, 0.000, 15:02:28.490, 1563390148490
160, -29161.04, -7920.92, -38457.65, 0.00, 0.00, 0.00, 0.00, 0.00, 0.000, 0.000, 0.000, 15:02:28.490, 1563390148490
161, -28917.55, -7698.48, -38208.05, 0.00, 0.00, 0.00, 0.00, 0.00, 0.088, 0.040, 1.026, 15:02:28.490, 1563390148490
162, -28579.83, -7365.35, -37864.97, 0.00, 0.00, 0.00, 0.00, 0.00, 0.000, 0.000, 0.000, 15:02:28.490, 1563390148490
163, -28798.52, -7561.30, -38086.86, 0.00, 0.00, 0.00, 0.00, 0.00, 0.000, 0.000, 0.000, 15:02:28.490, 1563390148490
164, -29125.93, -7872.84, -38409.55, 0.00, 0.00, 0.00, 0.00, 0.00, 0.000, 0.000, 0.000, 15:02:28.490, 1563390148490
165, -28968.84, -7730.73, -38250.20, 0.00, 0.00, 0.00, 0.00, 0.00, 0.000, 0.000, 0.000, 15:02:28.490, 1563390148490
166, -28578.18, -7367.02, -37871.05, 0.00, 0.00, 0.00, 0.00, 0.00, 0.000, 0.000, 0.000, 15:02:28.490, 1563390148490
167, -28699.75, -7482.34, -37996.54, 0.00, 0.00, 0.00, 0.00, 0.00, 0.000, 0.000, 0.000, 15:02:28.490, 1563390148490
168, -29048.46, -7828.41, -38336.68, 0.00, 0.00, 0.00, 0.00, 0.00, 0.000, 0.000, 0.000, 15:02:28.490, 1563390148490
169, -28983.89, -7796.20, -38285.41, 0.00, 0.00, 0.00, 0.00, 0.00, 0.000, 0.000, 0.000, 15:02:28.490, 1563390148490
170, -28543.60, -7393.20, -37848.92, 0.00, 0.00, 0.00, 0.00, 0.00, 0.000, 0.000, 0.000, 15:02:28.490, 1563390148490
171, -28588.15, -7423.39, -37885.36, 0.00, 0.00, 0.00, 0.00, 0.00, 0.084, 0.038, 1.030, 15:02:28.490, 1563390148490
172, -28964.08, -7787.57, -38261.85, 0.00, 0.00, 0.00, 0.00, 0.00, 0.000, 0.000, 0.000, 15:02:28.490, 1563390148490
173, -28998.64, -7799.91, -38296.79, 0.00, 0.00, 0.00, 0.00, 0.00, 0.000, 0.000, 0.000, 15:02:28.490, 1563390148490
174, -28567.81, -7401.22, -37885.00, 0.00, 0.00, 0.00, 0.00, 0.00, 0.000, 0.000, 0.000, 15:02:28.490, 1563390148490
175, -28511.53, -7339.35, -37841.10, 0.00, 0.00, 0.00, 0.00, 0.00, 0.000, 0.000, 0.000, 15:02:28.490, 1563390148490
176, -28858.60, -7649.28, -38185.90, 0.00, 0.00, 0.00, 0.00, 0.00, 0.000, 0.000, 0.000, 15:02:28.490, 1563390148490
177, -28977.22, -7751.07, -38301.01, 0.00, 0.00, 0.00, 0.00, 0.00, 0.000, 0.000, 0.000, 15:02:28.490, 1563390148490
178, -28561.68, -7360.85, -37884.04, 0.00, 0.00, 0.00, 0.00, 0.00, 0.000, 0.000, 0.000, 15:02:28.490, 1563390148490
179, -28431.06, -7239.66, -37754.02, 0.00, 0.00, 0.00, 0.00, 0.00, 0.000, 0.000, 0.000, 15:02:28.490, 1563390148490
180, -28786.30, -7566.80, -38100.76, 0.00, 0.00, 0.00, 0.00, 0.00, 0.000, 0.000, 0.000, 15:02:28.490, 1563390148490
181, -28981.72, -7753.75, -38289.05, 0.00, 0.00, 0.00, 0.00, 0.00, 0.082, 0.046, 1.028, 15:02:28.490, 1563390148490
182, -28676.42, -7471.72, -37990.90, 0.00, 0.00, 0.00, 0.00, 0.00, 0.000, 0.000, 0.000, 15:02:28.490, 1563390148490
183, -28439.93, -7236.76, -37757.88, 0.00, 0.00, 0.00, 0.00, 0.00, 0.000, 0.000, 0.000, 15:02:28.490, 1563390148490
184, -28742.35, -7519.22, -38058.89, 0.00, 0.00, 0.00, 0.00, 0.00, 0.000, 0.000, 0.000, 15:02:28.490, 1563390148490
185, -29021.97, -7792.22, -38335.41, 0.00, 0.00, 0.00, 0.00, 0.00, 0.000, 0.000, 0.000, 15:02:28.491, 1563390148491
186, -28784.60, -7577.84, -38093.03, 0.00, 0.00, 0.00, 0.00, 0.00, 0.000, 0.000, 0.000, 15:02:28.491, 1563390148491
187, -28472.08, -7287.27, -37772.01, 0.00, 0.00, 0.00, 0.00, 0.00, 0.000, 0.000, 0.000, 15:02:28.491, 1563390148491
188, -28775.10, -7571.94, -38083.62, 0.00, 0.00, 0.00, 0.00, 0.00, 0.000, 0.000, 0.000, 15:02:28.491, 1563390148491
189, -29124.37, -7913.08, -38430.96, 0.00, 0.00, 0.00, 0.00, 0.00, 0.000, 0.000, 0.000, 15:02:28.491, 1563390148491
190, -28971.66, -7777.98, -38269.56, 0.00, 0.00, 0.00, 0.00, 0.00, 0.000, 0.000, 0.000, 15:02:28.491, 1563390148491
191, -28591.30, -7422.66, -37889.67, 0.00, 0.00, 0.00, 0.00, 0.00, 0.084, 0.050, 1.024, 15:02:28.491, 1563390148491
192, -28780.53, -7626.84, -38080.80, 0.00, 0.00, 0.00, 0.00, 0.00, 0.000, 0.000, 0.000, 15:02:28.491, 1563390148491
193, -29133.58, -7951.25, -38420.17, 0.00, 0.00, 0.00, 0.00, 0.00, 0.000, 0.000, 0.000, 15:02:28.491, 1563390148491
194, -29076.42, -7852.17, -38365.63, 0.00, 0.00, 0.00, 0.00, 0.00, 0.000, 0.000, 0.000, 15:02:28.491, 1563390148491
195, -28706.95, -7516.24, -37996.58, 0.00, 0.00, 0.00, 0.00, 0.00, 0.000, 0.000, 0.000, 15:02:28.491, 1563390148491
196, -28778.00, -7588.55, -38077.22, 0.00, 0.00, 0.00, 0.00, 0.00, 0.000, 0.000, 0.000, 15:02:28.491, 1563390148491
197, -29130.42, -7931.78, -38435.70, 0.00, 0.00, 0.00, 0.00, 0.00, 0.000, 0.000, 0.000, 15:02:28.491, 1563390148491
198, -29136.77, -7944.61, -38454.32, 0.00, 0.00, 0.00, 0.00, 0.00, 0.000, 0.000, 0.000, 15:02:28.491, 1563390148491
199, -28740.34, -7559.38, -38061.60, 0.00, 0.00, 0.00, 0.00, 0.00, 0.000, 0.000, 0.000, 15:02:28.491, 1563390148491
200, -28712.54, -7517.85, -38029.01, 0.00, 0.00, 0.00, 0.00, 0.00, 0.000, 0.000, 0.000, 15:02:28.491, 1563390148491
201, -29060.06, -7836.41, -38370.43, 0.00, 0.00, 0.00, 0.00, 0.00, 0.082, 0.042, 1.024, 15:02:28.491, 1563390148491
202, -29189.14, -7973.11, -38503.80, 0.00, 0.00, 0.00, 0.00, 0.00, 0.000, 0.000, 0.000, 15:02:28.491, 1563390148491
203, -28840.25, -7644.54, -38153.67, 0.00, 0.00, 0.00, 0.00, 0.00, 0.000, 0.000, 0.000, 15:02:28.491, 1563390148491
204, -28704.13, -7494.14, -38018.66, 0.00, 0.00, 0.00, 0.00, 0.00, 0.000, 0.000, 0.000, 15:02:28.491, 1563390148491
205, -29015.85, -7787.82, -38328.30, 0.00, 0.00, 0.00, 0.00, 0.00, 0.000, 0.000, 0.000, 15:02:28.491, 1563390148491
206, -29198.42, -7963.43, -38506.64, 0.00, 0.00, 0.00, 0.00, 0.00, 0.000, 0.000, 0.000, 15:02:28.491, 1563390148491
207, -28881.54, -7674.18, -38185.54, 0.00, 0.00, 0.00, 0.00, 0.00, 0.000, 0.000, 0.000, 15:02:28.491, 1563390148491
208, -28653.79, -7465.19, -37961.33, 0.00, 0.00, 0.00, 0.00, 0.00, 0.000, 0.000, 0.000, 15:02:28.491, 1563390148491
209, -28958.63, -7746.20, -38289.25, 0.00, 0.00, 0.00, 0.00, 0.00, 0.000, 0.000, 0.000, 15:02:28.491, 1563390148491
210, -29212.12, -8000.45, -38541.13, 0.00, 0.00, 0.00, 0.00, 0.00, 0.000, 0.000, 0.000, 15:02:28.491, 1563390148491
211, -28965.20, -7778.67, -38285.07, 0.00, 0.00, 0.00, 0.00, 0.00, 0.000, 0.000, 0.000, 15:02:28.491, 1563390148491
212, -28614.32, -7441.68, -37931.71, 0.00, 0.00, 0.00, 0.00, 0.00, 0.080, 0.038, 1.030, 15:02:28.491, 1563390148491
213, -28833.88, -7649.03, -38146.74, 0.00, 0.00, 0.00, 0.00, 0.00, 0.000, 0.000, 0.000, 15:02:28.491, 1563390148491
214, -29176.65, -7984.04, -38492.25, 0.00, 0.00, 0.00, 0.00, 0.00, 0.000, 0.000, 0.000, 15:02:28.491, 1563390148491
215, -29055.12, -7873.67, -38364.51, 0.00, 0.00, 0.00, 0.00, 0.00, 0.000, 0.000, 0.000, 15:02:28.491, 1563390148491
216, -28664.14, -7492.84, -37967.70, 0.00, 0.00, 0.00, 0.00, 0.00, 0.000, 0.000, 0.000, 15:02:28.491, 1563390148491
217, -28816.74, -7638.71, -38138.22, 0.00, 0.00, 0.00, 0.00, 0.00, 0.000, 0.000, 0.000, 15:02:28.491, 1563390148491
218, -29168.00, -7973.78, -38478.77, 0.00, 0.00, 0.00, 0.00, 0.00, 0.000, 0.000, 0.000, 15:02:28.491, 1563390148491
219, -29104.12, -7916.29, -38404.21, 0.00, 0.00, 0.00, 0.00, 0.00, 0.000, 0.000, 0.000, 15:02:28.492, 1563390148492
220, -28673.73, -7508.73, -37971.45, 0.00, 0.00, 0.00, 0.00, 0.00, 0.000, 0.000, 0.000, 15:02:28.492, 1563390148492
221, -28744.32, -7568.46, -38050.29, 0.00, 0.00, 0.00, 0.00, 0.00, 0.000, 0.000, 0.000, 15:02:28.492, 1563390148492
222, -29108.14, -7908.85, -38414.67, 0.00, 0.00, 0.00, 0.00, 0.00, 0.082, 0.044, 1.032, 15:02:28.492, 1563390148492
223, -29155.19, -7958.41, -38465.72, 0.00, 0.00, 0.00, 0.00, 0.00, 0.000, 0.000, 0.000, 15:02:28.492, 1563390148492
224, -28727.45, -7552.86, -38049.53, 0.00, 0.00, 0.00, 0.00, 0.00, 0.000, 0.000, 0.000, 15:02:28.492, 1563390148492
225, -28715.40, -7524.47, -38038.51, 0.00, 0.00, 0.00, 0.00, 0.00, 0.000, 0.000, 0.000, 15:02:28.492, 1563390148492
226, -29066.92, -7846.18, -38374.41, 0.00, 0.00, 0.00, 0.00, 0.00, 0.000, 0.000, 0.000, 15:02:28.492, 1563390148492
227, -29174.10, -7948.97, -38475.75, 0.00, 0.00, 0.00, 0.00, 0.00, 0.000, 0.000, 0.000, 15:02:28.492, 1563390148492
228, -28805.74, -7600.17, -38109.30, 0.00, 0.00, 0.00, 0.00, 0.00, 0.000, 0.000, 0.000, 15:02:28.492, 1563390148492
229, -28665.02, -7461.37, -37971.72, 0.00, 0.00, 0.00, 0.00, 0.00, 0.000, 0.000, 0.000, 15:02:28.492, 1563390148492
230, -29018.78, -7793.90, -38315.94, 0.00, 0.00, 0.00, 0.00, 0.00, 0.000, 0.000, 0.000, 15:02:28.492, 1563390148492
231, -29207.94, -7974.52, -38498.26, 0.00, 0.00, 0.00, 0.00, 0.00, 0.000, 0.000, 0.000, 15:02:28.492, 1563390148492
232, -28885.72, -7679.77, -38178.72, 0.00, 0.00, 0.00, 0.00, 0.00, 0.090, 0.040, 1.028, 15:02:28.492, 1563390148492
233, -28658.53, -7461.53, -37963.90, 0.00, 0.00, 0.00, 0.00, 0.00, 0.000, 0.000, 0.000, 15:02:28.492, 1563390148492
234, -28962.92, -7745.57, -38251.14, 0.00, 0.00, 0.00, 0.00, 0.00, 0.000, 0.000, 0.000, 15:02:28.492, 1563390148492
235, -29212.39, -7991.11, -38513.62, 0.00, 0.00, 0.00, 0.00, 0.00, 0.000, 0.000, 0.000, 15:02:28.492, 1563390148492
236, -28967.39, -7773.65, -38272.98, 0.00, 0.00, 0.00, 0.00, 0.00, 0.000, 0.000, 0.000, 15:02:28.492, 1563390148492
237, -28664.30, -7504.87, -37959.07, 0.00, 0.00, 0.00, 0.00, 0.00, 0.000, 0.000, 0.000, 15:02:28.492, 1563390148492
238, -28888.27, -7717.92, -38179.59, 0.00, 0.00, 0.00, 0.00, 0.00, 0.000, 0.000, 0.000, 15:02:28.492, 1563390148492
239, -29200.25, -7995.58, -38503.96, 0.00, 0.00, 0.00, 0.00, 0.00, 0.000, 0.000, 0.000, 15:02:28.492, 1563390148492
240, -29053.67, -7840.25, -38358.41, 0.00, 0.00, 0.00, 0.00, 0.00, 0.000, 0.000, 0.000, 15:02:28.492, 1563390148492
241, -28667.56, -7491.03, -37976.89, 0.00, 0.00, 0.00, 0.00, 0.00, 0.000, 0.000, 0.000, 15:02:28.492, 1563390148492
242, -28830.66, -7641.57, -38144.84, 0.00, 0.00, 0.00, 0.00, 0.00, 0.084, 0.036, 1.030, 15:02:28.969, 1563390148969
243, -29183.98, -7974.97, -38488.32, 0.00, 0.00, 0.00, 0.00, 0.00, 0.000, 0.000, 0.000, 15:02:28.969, 1563390148969
244, -29106.53, -7900.85, -38413.08, 0.00, 0.00, 0.00, 0.00, 0.00, 0.000, 0.000, 0.000, 15:02:28.970, 1563390148970
245, -28690.56, -7501.71, -38000.58, 0.00, 0.00, 0.00, 0.00, 0.00, 0.000, 0.000, 0.000, 15:02:28.970, 1563390148970
246, -28777.65, -7574.04, -38075.23, 0.00, 0.00, 0.00, 0.00, 0.00, 0.000, 0.000, 0.000, 15:02:28.970, 1563390148970
247, -29129.08, -7909.43, -38447.93, 0.00, 0.00, 0.00, 0.00, 0.00, 0.000, 0.000, 0.000, 15:02:28.970, 1563390148970
248, -29147.70, -7934.31, -38465.27, 0.00, 0.00, 0.00, 0.00, 0.00, 0.000, 0.000, 0.000, 15:02:28.970, 1563390148970
249, -28732.83, -7540.96, -38041.93, 0.00, 0.00, 0.00, 0.00, 0.00, 0.000, 0.000, 0.000, 15:02:28.970, 1563390148970
250, -28710.70, -7509.54, -38018.50, 0.00, 0.00, 0.00, 0.00, 0.00, 0.000, 0.000, 0.000, 15:02:28.970, 1563390148970
251, -29053.85, -7831.31, -38374.23, 0.00, 0.00, 0.00, 0.00, 0.00, 0.000, 0.000, 0.000, 15:02:28.970, 1563390148970
252, -29156.51, -7939.09, -38463.82, 0.00, 0.00, 0.00, 0.00, 0.00, 0.076, 0.034, 1.030, 15:02:28.970, 1563390148970
253, -28753.51, -7564.97, -38059.63, 0.00, 0.00, 0.00, 0.00, 0.00, 0.000, 0.000, 0.000, 15:02:28.970, 1563390148970
254, -28640.43, -7453.99, -37953.62, 0.00, 0.00, 0.00, 0.00, 0.00, 0.000, 0.000, 0.000, 15:02:28.970, 1563390148970
255, -29004.79, -7796.96, -38313.73, 0.00, 0.00, 0.00, 0.00, 0.00, 0.000, 0.000, 0.000, 15:02:28.970, 1563390148970
0, -29163.08, -7937.71, -38470.08, 0.00, 0.00, 0.00, 0.00, 0.00, 0.000, 0.000, 0.000, 15:02:28.970, 1563390148970
1, -28817.95, -7617.23, -38121.99, 0.00, 0.00, 0.00, 0.00, 0.00, 0.000, 0.000, 0.000, 15:02:28.970, 1563390148970
2, -28588.21, -7393.62, -37907.24, 0.00, 0.00, 0.00, 0.00, 0.00, 0.000, 0.000, 0.000, 15:02:28.970, 1563390148970
3, -28874.32, -7669.02, -38187.30, 0.00, 0.00, 0.00, 0.00, 0.00, 0.000, 0.000, 0.000, 15:02:28.970, 1563390148970
4, -29139.50, -7939.83, -38446.79, 0.00, 0.00, 0.00, 0.00, 0.00, 0.000, 0.000, 0.000, 15:02:28.970, 1563390148970
5, -28875.50, -7684.40, -38177.74, 0.00, 0.00, 0.00, 0.00, 0.00, 0.000, 0.000, 0.000, 15:02:28.970, 1563390148970
6, -28561.53, -7375.87, -37875.36, 0.00, 0.00, 0.00, 0.00, 0.00, 0.074, 0.034, 1.032, 15:02:28.970, 1563390148970
7, -28811.38, -7605.25, -38135.14, 0.00, 0.00, 0.00, 0.00, 0.00, 0.000, 0.000, 0.000, 15:02:28.970, 1563390148970
8, -29131.47, -7921.70, -38461.81, 0.00, 0.00, 0.00, 0.00, 0.00, 0.000, 0.000, 0.000, 15:02:28.970, 1563390148970
9, -28995.33, -7814.59, -38326.54, 0.00, 0.00, 0.00, 0.00, 0.00, 0.000, 0.000, 0.000, 15:02:28.970, 1563390148970
10, -28629.43, -7474.47, -37957.71, 0.00, 0.00, 0.00, 0.00, 0.00, 0.000, 0.000, 0.000, 15:02:28.970, 1563390148970
11, -28802.79, -7625.90, -38122.26, 0.00, 0.00, 0.00, 0.00, 0.00, 0.000, 0.000, 0.000, 15:02:28.970, 1563390148970
12, -29156.15, -7963.19, -38478.35, 0.00, 0.00, 0.00, 0.00, 0.00, 0.000, 0.000, 0.000, 15:02:28.970, 1563390148970
13, -29078.43, -7900.74, -38400.12, 0.00, 0.00, 0.00, 0.00, 0.00, 0.000, 0.000, 0.000, 15:02:28.970, 1563390148970
14, -28654.24, -7492.68, -37988.40, 0.00, 0.00, 0.00, 0.00, 0.00, 0.000, 0.000, 0.000, 15:02:28.970, 1563390148970
15, -28748.48, -7568.55, -38079.05, 0.00, 0.00, 0.00, 0.00, 0.00, 0.000, 0.000, 0.000, 15:02:28.970, 1563390148970
16, -29101.46, -7899.64, -38422.42, 0.00, 0.00, 0.00, 0.00, 0.00, 0.000, 0.000, 0.000, 15:02:28.970, 1563390148970
17, -29135.10, -7944.44, -38466.14, 0.00, 0.00, 0.00, 0.00, 0.00, 0.082, 0.038, 1.032, 15:02:28.970, 1563390148970
18, -28702.41, -7527.89, -38035.61, 0.00, 0.00, 0.00, 0.00, 0.00, 0.000, 0.000, 0.000, 15:02:28.970, 1563390148970
19, -28688.75, -7500.33, -38017.16, 0.00, 0.00, 0.00, 0.00, 0.00, 0.000, 0.000, 0.000, 15:02:28.970, 1563390148970
20, -29055.81, -7846.94, -38386.37, 0.00, 0.00, 0.00, 0.00, 0.00, 0.000, 0.000, 0.000, 15:02:28.970, 1563390148970
21, -29185.81, -7981.58, -38511.47, 0.00, 0.00, 0.00, 0.00, 0.00, 0.000, 0.000, 0.000, 15:02:28.971, 1563390148971
22, -28800.96, -7619.20, -38121.99, 0.00, 0.00, 0.00, 0.00, 0.00, 0.000, 0.000, 0.000, 15:02:28.971, 1563390148971
23, -28650.38, -7465.19, -37966.25, 0.00, 0.00, 0.00, 0.00, 0.00, 0.000, 0.000, 0.000, 15:02:28.971, 1563390148971
24, -28989.32, -7784.08, -38308.79, 0.00, 0.00, 0.00, 0.00, 0.00, 0.000, 0.000, 0.000, 15:02:28.971, 1563390148971
25, -29209.88, -8000.87, -38526.52, 0.00, 0.00, 0.00, 0.00, 0.00, 0.000, 0.000, 0.000, 15:02:28.971, 1563390148971
26, -28878.61, -7676.04, -38197.57, 0.00, 0.00, 0.00, 0.00, 0.00, 0.000, 0.000, 0.000, 15:02:28.971, 1563390148971
27, -28632.07, -7425.83, -37952.97, 0.00, 0.00, 0.00, 0.00, 0.00, 0.084, 0.040, 1.028, 15:02:28.971, 1563390148971
28, -28919.24, -7699.24, -38240.12, 0.00, 0.00, 0.00, 0.00, 0.00, 0.000, 0.000, 0.000, 15:02:28.971, 1563390148971
29, -29092.81, -7861.64, -38399.34, 0.00, 0.00, 0.00, 0.00, 0.00, 0.000, 0.000, 0.000, 15:02:28.971, 1563390148971
30, -28698.81, -7495.46, -38001.14, 0.00, 0.00, 0.00, 0.00, 0.00, 0.000, 0.000, 0.000, 15:02:28.971, 1563390148971
31, -28218.38, -7047.39, -37534.72, 0.00, 0.00, 0.00, 0.00, 0.00, 0.000, 0.000, 0.000, 15:02:28.971, 1563390148971
32, -28281.64, -7091.25, -37589.13, 0.00, 0.00, 0.00, 0.00, 0.00, 0.000, 0.000, 0.000, 15:02:28.971, 1563390148971
33, -28411.12, -7208.39, -37713.43, 0.00, 0.00, 0.00, 0.00, 0.00, 0.000, 0.000, 0.000, 15:02:28.971, 1563390148971
34, -28187.87, -7013.69, -37505.73, 0.00, 0.00, 0.00, 0.00, 0.00, 0.000, 0.000, 0.000, 15:02:28.971, 1563390148971
35, -27935.14, -6781.27, -37258.48, 0.00, 0.00, 0.00, 0.00, 0.00, 0.000, 0.000, 0.000, 15:02:28.971, 1563390148971
36, -28331.33, -7160.92, -37666.76, 0.00, 0.00, 0.00, 0.00, 0.00, 0.000, 0.000, 0.000, 15:02:28.971, 1563390148971
37, -28958.76, -7755.34, -38290.93, 0.00, 0.00, 0.00, 0.00, 0.00, 0.084, 0.042, 1.028, 15:02:28.971, 1563390148971
38, -29096.76, -7893.45, -38421.55, 0.00, 0.00, 0.00, 0.00, 0.00, 0.000, 0.000, 0.000, 15:02:28.971, 1563390148971
39, -28732.88, -7549.01, -38054.49, 0.00, 0.00, 0.00, 0.00, 0.00, 0.000, 0.000, 0.000, 15:02:28.971, 1563390148971
40, -28765.76, -7573.04, -38085.72, 0.00, 0.00, 0.00, 0.00, 0.00, 0.000, 0.000, 0.000, 15:02:28.971, 1563390148971
41, -29086.23, -7881.54, -38410.22, 0.00, 0.00, 0.00, 0.00, 0.00, 0.000, 0.000, 0.000, 15:02:28.971, 1563390148971
42, -29099.38, -7900.74, -38423.09, 0.00, 0.00, 0.00, 0.00, 0.00, 0.000, 0.000, 0.000, 15:02:28.971, 1563390148971
43, -28673.89, -7484.30, -37997.74, 0.00, 0.00, 0.00, 0.00, 0.00, 0.000, 0.000, 0.000, 15:02:28.971, 1563390148971
44, -28655.25, -7453.57, -37984.78, 0.00, 0.00, 0.00, 0.00, 0.00, 0.000, 0.000, 0.000, 15:02:28.971, 1563390148971
45, -29026.35, -7812.29, -38347.97, 0.00, 0.00, 0.00, 0.00, 0.00, 0.000, 0.000, 0.000, 15:02:28.971, 1563390148971
46, -29122.38, -7911.56, -38434.32, 0.00, 0.00, 0.00, 0.00, 0.00, 0.000, 0.000, 0.000, 15:02:28.971, 1563390148971
47, -28746.29, -7567.27, -38070.77, 0.00, 0.00, 0.00, 0.00, 0.00, 0.082, 0.046, 1.022, 15:02:28.971, 1563390148971
48, -28626.59, -7435.22, -37951.09, 0.00, 0.00, 0.00, 0.00, 0.00, 0.000, 0.000, 0.000, 15:02:28.971, 1563390148971
49, -28970.59, -7730.15, -38297.54, 0.00, 0.00, 0.00, 0.00, 0.00, 0.000, 0.000, 0.000, 15:02:28.971, 1563390148971
50, -29156.49, -7920.97, -38476.16, 0.00, 0.00, 0.00, 0.00, 0.00, 0.000, 0.000, 0.000, 15:02:28.971, 1563390148971
51, -28812.87, -7612.83, -38127.67, 0.00, 0.00, 0.00, 0.00, 0.00, 0.000, 0.000, 0.000, 15:02:28.971, 1563390148971
52, -28590.88, -7392.21, -37907.13, 0.00, 0.00, 0.00, 0.00, 0.00, 0.000, 0.000, 0.000, 15:02:28.971, 1563390148971
53, -28889.67, -7685.51, -38204.47, 0.00, 0.00, 0.00, 0.00, 0.00, 0.000, 0.000, 0.000, 15:02:28.971, 1563390148971
54, -29138.43, -7931.83, -38444.21, 0.00, 0.00, 0.00, 0.00, 0.00, 0.000, 0.000, 0.000, 15:02:28.972, 1563390148972
55, -28911.76, -7702.28, -38202.66, 0.00, 0.00, 0.00, 0.00, 0.00, 0.000, 0.000, 0.000, 15:02:28.972, 1563390148972
56, -28608.58, -7414.95, -37904.64, 0.00, 0.00, 0.00, 0.00, 0.00, 0.000, 0.000, 0.000, 15:02:28.972, 1563390148972
57, -28824.92, -7627.67, -38131.74, 0.00, 0.00, 0.00, 0.00, 0.00, 0.090, 0.044, 1.022, 15:02:28.972, 1563390148972
58, -29114.29, -7908.56, -38426.92, 0.00, 0.00, 0.00, 0.00, 0.00, 0.000, 0.000, 0.000, 15:02:28.972, 1563390148972
59, -28941.66, -7758.54, -38250.25, 0.00, 0.00, 0.00, 0.00, 0.00, 0.000, 0.000, 0.000, 15:02:28.972, 1563390148972
60, -28545.57, -7378.27, -37872.01, 0.00, 0.00, 0.00, 0.00, 0.00, 0.000, 0.000, 0.000, 15:02:28.972, 1563390148972
61, -28700.02, -7518.97, -38026.62, 0.00, 0.00, 0.00, 0.00, 0.00, 0.000, 0.000, 0.000, 15:02:28.972, 1563390148972
62, -29037.40, -7849.37, -38367.75, 0.00, 0.00, 0.00, 0.00, 0.00, 0.000, 0.000, 0.000, 15:02:28.972, 1563390148972
63, -28960.28, -7781.58, -38288.20, 0.00, 0.00, 0.00, 0.00, 0.00, 0.000, 0.000, 0.000, 15:02:28.972, 1563390148972
64, -28541.63, -7374.42, -37869.98, 0.00, 0.00, 0.00, 0.00, 0.00, 0.000, 0.000, 0.000, 15:02:28.972, 1563390148972
65, -28643.85, -7453.64, -37967.66, 0.00, 0.00, 0.00, 0.00, 0.00, 0.000, 0.000, 0.000, 15:02:28.972, 1563390148972
66, -28987.62, -7789.69, -38312.16, 0.00, 0.00, 0.00, 0.00, 0.00, 0.000, 0.000, 0.000, 15:02:28.972, 1563390148972
67, -28990.39, -7783.64, -38317.50, 0.00, 0.00, 0.00, 0.00, 0.00, 0.000, 0.000, 0.000, 15:02:28.972, 1563390148972
68, -28578.16, -7376.75, -37895.75, 0.00, 0.00, 0.00, 0.00, 0.00, 0.094, 0.044, 1.024, 15:02:28.972, 1563390148972
69, -28524.24, -7327.08, -37861.48, 0.00, 0.00, 0.00, 0.00, 0.00, 0.000, 0.000, 0.000, 15:02:28.972, 1563390148972
70, -28885.29, -7671.95, -38216.83, 0.00, 0.00, 0.00, 0.00, 0.00, 0.000, 0.000, 0.000, 15:02:28.972, 1563390148972
71, -28991.13, -7768.10, -38306.35, 0.00, 0.00, 0.00, 0.00, 0.00, 0.000, 0.000, 0.000, 15:02:28.972, 1563390148972
72, -28599.19, -7384.10, -37909.27, 0.00, 0.00, 0.00, 0.00, 0.00, 0.000, 0.000, 0.000, 15:02:28.972, 1563390148972
73, -28476.95, -7260.23, -37789.58, 0.00, 0.00, 0.00, 0.00, 0.00, 0.000, 0.000, 0.000, 15:02:28.972, 1563390148972
74, -28780.64, -7536.14, -38097.41, 0.00, 0.00, 0.00, 0.00, 0.00, 0.000, 0.000, 0.000, 15:02:28.972, 1563390148972
75, -28954.45, -7724.83, -38276.02, 0.00, 0.00, 0.00, 0.00, 0.00, 0.000, 0.000, 0.000, 15:02:28.972, 1563390148972
76, -28625.95, -7436.11, -37942.00, 0.00, 0.00, 0.00, 0.00, 0.00, 0.000, 0.000, 0.000, 15:02:28.972, 1563390148972
77, -28399.86, -7201.78, -37707.26, 0.00, 0.00, 0.00, 0.00, 0.00, 0.000, 0.000, 0.000, 15:02:28.972, 1563390148972
78, -28701.34, -7479.65, -37988.75, 0.00, 0.00, 0.00, 0.00, 0.00, 0.090, 0.042, 1.024, 15:02:28.972, 1563390148972
79, -28961.54, -7739.74, -38244.30, 0.00, 0.00, 0.00, 0.00, 0.00, 0.000, 0.000, 0.000, 15:02:28.972, 1563390148972
80, -28714.84, -7502.61, -37989.74, 0.00, 0.00, 0.00, 0.00, 0.00, 0.000, 0.000, 0.000, 15:02:28.972, 1563390148972
81, -28389.78, -7189.39, -37679.61, 0.00, 0.00, 0.00, 0.00, 0.00, 0.000, 0.000, 0.000, 15:02:28.972, 1563390148972
82, -28616.11, -7407.59, -37892.06, 0.00, 0.00, 0.00, 0.00, 0.00, 0.000, 0.000, 0.000, 15:02:28.973, 1563390148973
83, -28916.70, -7687.03, -38177.61, 0.00, 0.00, 0.00, 0.00, 0.00, 0.000, 0.000, 0.000, 15:02:28.973, 1563390148973
84, -28782.85, -7568.55, -38059.97, 0.00, 0.00, 0.00, 0.00, 0.00, 0.000, 0.000, 0.000, 15:02:28.973, 1563390148973
85, -28413.92, -7226.41, -37700.39, 0.00, 0.00, 0.00, 0.00, 0.00, 0.000, 0.000, 0.000, 15:02:28.973, 1563390148973
86, -28590.03, -7389.82, -37867.50, 0.00, 0.00, 0.00, 0.00, 0.00, 0.000, 0.000, 0.000, 15:02:28.973, 1563390148973
87, -28953.67, -7730.53, -38222.29, 0.00, 0.00, 0.00, 0.00, 0.00, 0.000, 0.000, 0.000, 15:02:28.973, 1563390148973
88, -28894.19, -7679.05, -38171.14, 0.00, 0.00, 0.00, 0.00, 0.00, 0.088, 0.042, 1.020, 15:02:28.973, 1563390148973
89, -28487.23, -7298.40, -37769.21, 0.00, 0.00, 0.00, 0.00, 0.00, 0.000, 0.000, 0.000, 15:02:28.973, 1563390148973
90, -28594.52, -7388.86, -37875.61, 0.00, 0.00, 0.00, 0.00, 0.00, 0.000, 0.000, 0.000, 15:02:28.973, 1563390148973
91, -28962.47, -7736.27, -38222.69, 0.00, 0.00, 0.00, 0.00, 0.00, 0.000, 0.000, 0.000, 15:02:28.973, 1563390148973
92, -29004.32, -7793.54, -38281.63, 0.00, 0.00, 0.00, 0.00, 0.00, 0.000, 0.000, 0.000, 15:02:28.973, 1563390148973
93, -28594.27, -7400.60, -37886.96, 0.00, 0.00, 0.00, 0.00, 0.00, 0.000, 0.000, 0.000, 15:02:28.973, 1563390148973
94, -28616.54, -7414.05, -37873.09, 0.00, 0.00, 0.00, 0.00, 0.00, 0.000, 0.000, 0.000, 15:02:28.973, 1563390148973
95, -29003.53, -7775.41, -38277.07, 0.00, 0.00, 0.00, 0.00, 0.00, 0.000, 0.000, 0.000, 15:02:28.973, 1563390148973
96, -29103.07, -7866.94, -38391.11, 0.00, 0.00, 0.00, 0.00, 0.00, 0.000, 0.000, 0.000, 15:02:28.973, 1563390148973
97, -28741.91, -7520.69, -38024.94, 0.00, 0.00, 0.00, 0.00, 0.00, 0.000, 0.000, 0.000, 15:02:28.973, 1563390148973
98, -28645.95, -7421.43, -37925.88, 0.00, 0.00, 0.00, 0.00, 0.00, 0.088, 0.038, 1.024, 15:02:28.973, 1563390148973
99, -28999.24, -7772.73, -38282.64, 0.00, 0.00, 0.00, 0.00, 0.00, 0.000, 0.000, 0.000, 15:02:28.974, 1563390148974
100, -29185.41, -7960.17, -38465.52, 0.00, 0.00, 0.00, 0.00, 0.00, 0.000, 0.000, 0.000, 15:02:28.974, 1563390148974
101, -28844.54, -7629.37, -38120.95, 0.00, 0.00, 0.00, 0.00, 0.00, 0.000, 0.000, 0.000, 15:02:28.974, 1563390148974
102, -28646.31, -7438.03, -37916.13, 0.00, 0.00, 0.00, 0.00, 0.00, 0.000, 0.000, 0.000, 15:02:28.974, 1563390148974
103, -28963.66, -7746.44, -38244.75, 0.00, 0.00, 0.00, 0.00, 0.00, 0.000, 0.000, 0.000, 15:02:28.974, 1563390148974
104, -29230.61, -8007.00, -38506.38, 0.00, 0.00, 0.00, 0.00, 0.00, 0.000, 0.000, 0.000, 15:02:28.974, 1563390148974
105, -28979.73, -7773.91, -38238.31, 0.00, 0.00, 0.00, 0.00, 0.00, 0.000, 0.000, 0.000, 15:02:28.974, 1563390148974
106, -28650.06, -7463.40, -37922.77, 0.00, 0.00, 0.00, 0.00, 0.00, 0.000, 0.000, 0.000, 15:02:29.450, 1563390149450
107, -28878.72, -7676.53, -38152.30, 0.00, 0.00, 0.00, 0.00, 0.00, 0.000, 0.000, 0.000, 15:02:29.450, 1563390149450
108, -29211.85, -7988.20, -38474.82, 0.00, 0.00, 0.00, 0.00, 0.00, 0.082, 0.042, 1.032, 15:02:29.450, 1563390149450
109, -29043.01, -7822.37, -38308.81, 0.00, 0.00, 0.00, 0.00, 0.00, 0.000, 0.000, 0.000, 15:02:29.450, 1563390149450
110, -28672.04, -7473.31, -37941.04, 0.00, 0.00, 0.00, 0.00, 0.00, 0.000, 0.000, 0.000, 15:02:29.450, 1563390149450
111, -28851.99, -7639.92, -38126.31, 0.00, 0.00, 0.00, 0.00, 0.00, 0.000, 0.000, 0.000, 15:02:29.450, 1563390149450
112, -29177.16, -7948.41, -38444.62, 0.00, 0.00, 0.00, 0.00, 0.00, 0.000, 0.000, 0.000, 15:02:29.450, 1563390149450
113, -29097.77, -7884.00, -38367.26, 0.00, 0.00, 0.00, 0.00, 0.00, 0.000, 0.000, 0.000, 15:02:29.450, 1563390149450
114, -28690.07, -7499.81, -37966.27, 0.00, 0.00, 0.00, 0.00, 0.00, 0.000, 0.000, 0.000, 15:02:29.451, 1563390149451
115, -28792.71, -7582.78, -38069.47, 0.00, 0.00, 0.00, 0.00, 0.00, 0.000, 0.000, 0.000, 15:02:29.451, 1563390149451
116, -29139.07, -7900.47, -38421.13, 0.00, 0.00, 0.00, 0.00, 0.00, 0.000, 0.000, 0.000, 15:02:29.451, 1563390149451
117, -29145.87, -7911.31, -38429.62, 0.00, 0.00, 0.00, 0.00, 0.00, 0.000, 0.000, 0.000, 15:02:29.451, 1563390149451
118, -28715.33, -7506.16, -38007.93, 0.00, 0.00, 0.00, 0.00, 0.00, 0.086, 0.042, 1.026, 15:02:29.451, 1563390149451
119, -28687.70, -7472.68, -37975.19, 0.00, 0.00, 0.00, 0.00, 0.00, 0.000, 0.000, 0.000, 15:02:29.451, 1563390149451
120, -29026.82, -7787.46, -38308.70, 0.00, 0.00, 0.00, 0.00, 0.00, 0.000, 0.000, 0.000, 15:02:29.451, 1563390149451
121, -29142.09, -7916.18, -38414.36, 0.00, 0.00, 0.00, 0.00, 0.00, 0.000, 0.000, 0.000, 15:02:29.451, 1563390149451
122, -28785.69, -7585.56, -38057.71, 0.00, 0.00, 0.00, 0.00, 0.00, 0.000, 0.000, 0.000, 15:02:29.451, 1563390149451
123, -28689.51, -7462.51, -37971.59, 0.00, 0.00, 0.00, 0.00, 0.00, 0.000, 0.000, 0.000, 15:02:29.451, 1563390149451
124, -28992.25, -7757.11, -38272.27, 0.00, 0.00, 0.00, 0.00, 0.00, 0.000, 0.000, 0.000, 15:02:29.451, 1563390149451
125, -29158.79, -7935.07, -38437.96, 0.00, 0.00, 0.00, 0.00, 0.00, 0.000, 0.000, 0.000, 15:02:29.451, 1563390149451
126, -28839.16, -7647.78, -38129.37, 0.00, 0.00, 0.00, 0.00, 0.00, 0.000, 0.000, 0.000, 15:02:29.451, 1563390149451
127, -28634.04, -7439.46, -37940.12, 0.00, 0.00, 0.00, 0.00, 0.00, 0.000, 0.000, 0.000, 15:02:29.451, 1563390149451
128, -28952.97, -7733.95, -38243.12, 0.00, 0.00, 0.00, 0.00, 0.00, 0.000, 0.000, 0.000, 15:02:29.451, 1563390149451
129, -29205.97, -7996.20, -38486.37, 0.00, 0.00, 0.00, 0.00, 0.00, 0.090, 0.044, 1.032, 15:02:29.451, 1563390149451
130, -28951.79, -7766.25, -38257.82, 0.00, 0.00, 0.00, 0.00, 0.00, 0.000, 0.000, 0.000, 15:02:29.451, 1563390149451
131, -28630.82, -7462.15, -37947.65, 0.00, 0.00, 0.00, 0.00, 0.00, 0.000, 0.000, 0.000, 15:02:29.451, 1563390149451
132, -28873.60, -7695.97, -38185.05, 0.00, 0.00, 0.00, 0.00, 0.00, 0.000, 0.000, 0.000, 15:02:29.451, 1563390149451
133, -29172.29, -7986.03, -38483.64, 0.00, 0.00, 0.00, 0.00, 0.00, 0.000, 0.000, 0.000, 15:02:29.451, 1563390149451
134, -28999.20, -7827.07, -38309.82, 0.00, 0.00, 0.00, 0.00, 0.00, 0.000, 0.000, 0.000, 15:02:29.451, 1563390149451
135, -28628.72, -7468.32, -37937.64, 0.00, 0.00, 0.00, 0.00, 0.00, 0.000, 0.000, 0.000, 15:02:29.451, 1563390149451
136, -28815.69, -7633.75, -38122.82, 0.00, 0.00, 0.00, 0.00, 0.00, 0.000, 0.000, 0.000, 15:02:29.451, 1563390149451
137, -29132.79, -7938.20, -38436.93, 0.00, 0.00, 0.00, 0.00, 0.00, 0.000, 0.000, 0.000, 15:02:29.451, 1563390149451
138, -29049.71, -7865.78, -38340.13, 0.00, 0.00, 0.00, 0.00, 0.00, 0.000, 0.000, 0.000, 15:02:29.451, 1563390149451
139, -28679.37, -7498.07, -37974.29, 0.00, 0.00, 0.00, 0.00, 0.00, 0.086, 0.044, 1.030, 15:02:29.451, 1563390149451
140, -28759.25, -7557.59, -38058.85, 0.00, 0.00, 0.00, 0.00, 0.00, 0.000, 0.000, 0.000, 15:02:29.451, 1563390149451
141, -29102.02, -7883.84, -38397.32, 0.00, 0.00, 0.00, 0.00, 0.00, 0.000, 0.000, 0.000, 15:02:29.451, 1563390149451
142, -29118.55, -7917.70, -38413.46, 0.00, 0.00, 0.00, 0.00, 0.00, 0.000, 0.000, 0.000, 15:02:29.451, 1563390149451
143, -28751.27, -7582.34, -38041.71, 0.00, 0.00, 0.00, 0.00, 0.00, 0.000, 0.000, 0.000, 15:02:29.451, 1563390149451
144, -28730.86, -7554.20, -38021.46, 0.00, 0.00, 0.00, 0.00, 0.00, 0.000, 0.000, 0.000, 15:02:29.451, 1563390149451
145, -29067.37, -7858.36, -38355.39, 0.00, 0.00, 0.00, 0.00, 0.00, 0.000, 0.000, 0.000, 15:02:29.451, 1563390149451
146, -29171.30, -7951.72, -38446.07, 0.00, 0.00, 0.00, 0.00, 0.00, 0.000, 0.000, 0.000, 15:02:29.451, 1563390149451
147, -28798.79, -7592.46, -38091.44, 0.00, 0.00, 0.00, 0.00, 0.00, 0.000, 0.000, 0.000, 15:02:29.451, 1563390149451
148, -28668.17, -7470.15, -37965.35, 0.00, 0.00, 0.00, 0.00, 0.00, 0.000, 0.000, 0.000, 15:02:29.452, 1563390149452
149, -29014.80, -7800.96, -38310.73, 0.00, 0.00, 0.00, 0.00, 0.00, 0.086, 0.038, 1.034, 15:02:29.452, 1563390149452
150, -29193.48, -7984.06, -38495.09, 0.00, 0.00, 0.00, 0.00, 0.00, 0.000, 0.000, 0.000, 15:02:29.452, 1563390149452
151, -28851.90, -7667.36, -38151.66, 0.00, 0.00, 0.00, 0.00, 0.00, 0.000, 0.000, 0.000, 15:02:29.452, 1563390149452
152, -28619.57, -7445.88, -37923.18, 0.00, 0.00, 0.00, 0.00, 0.00, 0.000, 0.000, 0.000, 15:02:29.452, 1563390149452
153, -28916.45, -7727.51, -38222.62, 0.00, 0.00, 0.00, 0.00, 0.00, 0.000, 0.000, 0.000, 15:02:29.452, 1563390149452
154, -29167.08, -7973.74, -38470.28, 0.00, 0.00, 0.00, 0.00, 0.00, 0.000, 0.000, 0.000, 15:02:29.452, 1563390149452
155, -28910.10, -7738.33, -38220.97, 0.00, 0.00, 0.00, 0.00, 0.00, 0.000, 0.000, 0.000, 15:02:29.452, 1563390149452
156, -28589.82, -7435.22, -37911.26, 0.00, 0.00, 0.00, 0.00, 0.00, 0.000, 0.000, 0.000, 15:02:29.452, 1563390149452
157, -28813.95, -7647.90, -38142.80, 0.00, 0.00, 0.00, 0.00, 0.00, 0.000, 0.000, 0.000, 15:02:29.452, 1563390149452
158, -29111.87, -7935.58, -38435.48, 0.00, 0.00, 0.00, 0.00, 0.00, 0.000, 0.000, 0.000, 15:02:29.452, 1563390149452
159, -28954.70, -7792.35, -38278.34, 0.00, 0.00, 0.00, 0.00, 0.00, 0.086, 0.044, 1.028, 15:02:29.452, 1563390149452
160, -28587.01, -7443.85, -37912.07, 0.00, 0.00, 0.00, 0.00, 0.00, 0.000, 0.000, 0.000, 15:02:29.452, 1563390149452
161, -28752.21, -7597.42, -38077.02, 0.00, 0.00, 0.00, 0.00, 0.00, 0.000, 0.000, 0.000, 15:02:29.452, 1563390149452
162, -29070.54, -7893.90, -38393.28, 0.00, 0.00, 0.00, 0.00, 0.00, 0.000, 0.000, 0.000, 15:02:29.452, 1563390149452
163, -29001.28, -7820.90, -38312.27, 0.00, 0.00, 0.00, 0.00, 0.00, 0.000, 0.000, 0.000, 15:02:29.452, 1563390149452
164, -28605.92, -7438.50, -37909.96, 0.00, 0.00, 0.00, 0.00, 0.00, 0.000, 0.000, 0.000, 15:02:29.452, 1563390149452
165, -28700.22, -7512.71, -38009.18, 0.00, 0.00, 0.00, 0.00, 0.00, 0.000, 0.000, 0.000, 15:02:29.452, 1563390149452
166, -29047.43, -7812.56, -38359.93, 0.00, 0.00, 0.00, 0.00, 0.00, 0.000, 0.000, 0.000, 15:02:29.452, 1563390149452
167, -29078.77, -7860.48, -38378.68, 0.00, 0.00, 0.00, 0.00, 0.00, 0.000, 0.000, 0.000, 15:02:29.452, 1563390149452
168, -28680.37, -7487.41, -37967.27, 0.00, 0.00, 0.00, 0.00, 0.00, 0.000, 0.000, 0.000, 15:02:29.452, 1563390149452
169, -28669.55, -7470.31, -37965.13, 0.00, 0.00, 0.00, 0.00, 0.00, 0.092, 0.042, 1.030, 15:02:29.452, 1563390149452
170, -29009.68, -7798.39, -38294.91, 0.00, 0.00, 0.00, 0.00, 0.00, 0.000, 0.000, 0.000, 15:02:29.452, 1563390149452
171, -29140.10, -7929.86, -38428.55, 0.00, 0.00, 0.00, 0.00, 0.00, 0.000, 0.000, 0.000, 15:02:29.452, 1563390149452
172, -28771.28, -7566.71, -38059.57, 0.00, 0.00, 0.00, 0.00, 0.00, 0.000, 0.000, 0.000, 15:02:29.452, 1563390149452
173, -28657.48, -7454.66, -37944.92, 0.00, 0.00, 0.00, 0.00, 0.00, 0.000, 0.000, 0.000, 15:02:29.452, 1563390149452
174, -29018.35, -7806.03, -38297.39, 0.00, 0.00, 0.00, 0.00, 0.00, 0.000, 0.000, 0.000, 15:02:29.452, 1563390149452
175, -29201.88, -7995.69, -38482.26, 0.00, 0.00, 0.00, 0.00, 0.00, 0.000, 0.000, 0.000, 15:02:29.452, 1563390149452
176, -28879.21, -7697.85, -38167.03, 0.00, 0.00, 0.00, 0.00, 0.00, 0.000, 0.000, 0.000, 15:02:29.452, 1563390149452
177, -28660.01, -7486.63, -37951.47, 0.00, 0.00, 0.00, 0.00, 0.00, 0.000, 0.000, 0.000, 15:02:29.452, 1563390149452
178, -28957.71, -7774.18, -38256.55, 0.00, 0.00, 0.00, 0.00, 0.00, 0.000, 0.000, 0.000, 15:02:29.452, 1563390149452
179, -29215.21, -8027.67, -38507.96, 0.00, 0.00, 0.00, 0.00, 0.00, 0.000, 0.000, 0.000, 15:02:29.452, 1563390149452
180, -28949.80, -7775.99, -38249.55, 0.00, 0.00, 0.00, 0.00, 0.00, 0.088, 0.040, 1.022, 15:02:29.452, 1563390149452
181, -28652.83, -7494.94, -37955.36, 0.00, 0.00, 0.00, 0.00, 0.00, 0.000, 0.000, 0.000, 15:02:29.452, 1563390149452
182, -28898.50, -7726.60, -38203.18, 0.00, 0.00, 0.00, 0.00, 0.00, 0.000, 0.000, 0.000, 15:02:29.453, 1563390149453
183, -29215.65, -8021.97, -38517.89, 0.00, 0.00, 0.00, 0.00, 0.00, 0.000, 0.000, 0.000, 15:02:29.453, 1563390149453
184, -29034.74, -7834.33, -38330.69, 0.00, 0.00, 0.00, 0.00, 0.00, 0.000, 0.000, 0.000, 15:02:29.453, 1563390149453
185, -28640.12, -7464.25, -37947.29, 0.00, 0.00, 0.00, 0.00, 0.00, 0.000, 0.000, 0.000, 15:02:29.453, 1563390149453
186, -28830.87, -7647.52, -38130.42, 0.00, 0.00, 0.00, 0.00, 0.00, 0.000, 0.000, 0.000, 15:02:29.453, 1563390149453
187, -29186.62, -7975.73, -38476.36, 0.00, 0.00, 0.00, 0.00, 0.00, 0.000, 0.000, 0.000, 15:02:29.453, 1563390149453
188, -29097.48, -7895.51, -38408.36, 0.00, 0.00, 0.00, 0.00, 0.00, 0.000, 0.000, 0.000, 15:02:29.453, 1563390149453
189, -28663.56, -7479.16, -37981.18, 0.00, 0.00, 0.00, 0.00, 0.00, 0.000, 0.000, 0.000, 15:02:29.453, 1563390149453
190, -28671.56, -7477.98, -37989.70, 0.00, 0.00, 0.00, 0.00, 0.00, 0.086, 0.038, 1.026, 15:02:29.453, 1563390149453
191, -28901.18, -7704.80, -38214.38, 0.00, 0.00, 0.00, 0.00, 0.00, 0.000, 0.000, 0.000, 15:02:29.453, 1563390149453
192, -28785.58, -7593.02, -38084.82, 0.00, 0.00, 0.00, 0.00, 0.00, 0.000, 0.000, 0.000, 15:02:29.453, 1563390149453
193, -28154.26, -6969.32, -37453.27, 0.00, 0.00, 0.00, 0.00, 0.00, 0.000, 0.000, 0.000, 15:02:29.453, 1563390149453
194, -27943.97, -6757.45, -37243.28, 0.00, 0.00, 0.00, 0.00, 0.00, 0.000, 0.000, 0.000, 15:02:29.453, 1563390149453
195, -28224.42, -7026.94, -37524.55, 0.00, 0.00, 0.00, 0.00, 0.00, 0.000, 0.000, 0.000, 15:02:29.453, 1563390149453
196, -28404.51, -7201.66, -37700.62, 0.00, 0.00, 0.00, 0.00, 0.00, 0.000, 0.000, 0.000, 15:02:29.453, 1563390149453
197, -28217.76, -7029.56, -37512.73, 0.00, 0.00, 0.00, 0.00, 0.00, 0.000, 0.000, 0.000, 15:02:29.453, 1563390149453
198, -28410.32, -7227.01, -37699.77, 0.00, 0.00, 0.00, 0.00, 0.00, 0.000, 0.000, 0.000, 15:02:29.453, 1563390149453
199, -29008.99, -7804.76, -38293.92, 0.00, 0.00, 0.00, 0.00, 0.00, 0.000, 0.000, 0.000, 15:02:29.453, 1563390149453
200, -29280.40, -8081.81, -38566.04, 0.00, 0.00, 0.00, 0.00, 0.00, 0.088, 0.040, 1.028, 15:02:29.453, 1563390149453
201, -28908.61, -7736.77, -38193.52, 0.00, 0.00, 0.00, 0.00, 0.00, 0.000, 0.000, 0.000, 15:02:29.453, 1563390149453
202, -28643.80, -7488.84, -37944.90, 0.00, 0.00, 0.00, 0.00, 0.00, 0.000, 0.000, 0.000, 15:02:29.453, 1563390149453
203, -28928.68, -7749.10, -38228.84, 0.00, 0.00, 0.00, 0.00, 0.00, 0.000, 0.000, 0.000, 15:02:29.453, 1563390149453
204, -29163.64, -7963.39, -38453.61, 0.00, 0.00, 0.00, 0.00, 0.00, 0.000, 0.000, 0.000, 15:02:29.453, 1563390149453
205, -28894.63, -7716.36, -38193.74, 0.00, 0.00, 0.00, 0.00, 0.00, 0.000, 0.000, 0.000, 15:02:29.453, 1563390149453
206, -28599.01, -7435.96, -37901.61, 0.00, 0.00, 0.00, 0.00, 0.00, 0.000, 0.000, 0.000, 15:02:29.453, 1563390149453
207, -28855.01, -7668.75, -38160.26, 0.00, 0.00, 0.00, 0.00, 0.00, 0.000, 0.000, 0.000, 15:02:29.453, 1563390149453
208, -29162.34, -7965.29, -38460.85, 0.00, 0.00, 0.00, 0.00, 0.00, 0.000, 0.000, 0.000, 15:02:29.453, 1563390149453
209, -28969.45, -7786.72, -38256.82, 0.00, 0.00, 0.00, 0.00, 0.00, 0.000, 0.000, 0.000, 15:02:29.453, 1563390149453
210, -28602.52, -7417.16, -37899.17, 0.00, 0.00, 0.00, 0.00, 0.00, 0.092, 0.036, 1.022, 15:02:29.453, 1563390149453
211, -28806.82, -7601.56, -38108.79, 0.00, 0.00, 0.00, 0.00, 0.00, 0.000, 0.000, 0.000, 15:02:29.453, 1563390149453
212, -29130.92, -7916.27, -38424.35, 0.00, 0.00, 0.00, 0.00, 0.00, 0.000, 0.000, 0.000, 15:02:29.453, 1563390149453
213, -29036.97, -7836.16, -38342.56, 0.00, 0.00, 0.00, 0.00, 0.00, 0.000, 0.000, 0.000, 15:02:29.453, 1563390149453
214, -28612.47, -7446.62, -37911.46, 0.00, 0.00, 0.00, 0.00, 0.00, 0.000, 0.000, 0.000, 15:02:29.453, 1563390149453
215, -28715.67, -7532.90, -38021.72, 0.00, 0.00, 0.00, 0.00, 0.00, 0.000, 0.000, 0.000, 15:02:29.454, 1563390149454
216, -29068.35, -7846.20, -38373.85, 0.00, 0.00, 0.00, 0.00, 0.00, 0.000, 0.000, 0.000, 15:02:29.454, 1563390149454
217, -29068.04, -7865.04, -38372.25, 0.00, 0.00, 0.00, 0.00, 0.00, 0.000, 0.000, 0.000, 15:02:29.454, 1563390149454
218, -28652.16, -7473.55, -37954.45, 0.00, 0.00, 0.00, 0.00, 0.00, 0.000, 0.000, 0.000, 15:02:29.454, 1563390149454
219, -28654.00, -7487.01, -37957.15, 0.00, 0.00, 0.00, 0.00, 0.00, 0.000, 0.000, 0.000, 15:02:29.454, 1563390149454
220, -28998.10, -7807.44, -38307.83, 0.00, 0.00, 0.00, 0.00, 0.00, 0.088, 0.044, 1.030, 15:02:29.454, 1563390149454
221, -29064.17, -7865.31, -38372.85, 0.00, 0.00, 0.00, 0.00, 0.00, 0.000, 0.000, 0.000, 15:02:29.454, 1563390149454
222, -28648.03, -7486.29, -37952.41, 0.00, 0.00, 0.00, 0.00, 0.00, 0.000, 0.000, 0.000, 15:02:29.454, 1563390149454
223, -28577.58, -7421.32, -37887.23, 0.00, 0.00, 0.00, 0.00, 0.00, 0.000, 0.000, 0.000, 15:02:29.454, 1563390149454
224, -28931.54, -7754.67, -38234.13, 0.00, 0.00, 0.00, 0.00, 0.00, 0.000, 0.000, 0.000, 15:02:29.454, 1563390149454
225, -29091.22, -7900.29, -38393.57, 0.00, 0.00, 0.00, 0.00, 0.00, 0.000, 0.000, 0.000, 15:02:29.454, 1563390149454
226, -28738.40, -7569.62, -38043.56, 0.00, 0.00, 0.00, 0.00, 0.00, 0.000, 0.000, 0.000, 15:02:29.454, 1563390149454
227, -28527.82, -7370.49, -37842.22, 0.00, 0.00, 0.00, 0.00, 0.00, 0.000, 0.000, 0.000, 15:02:29.931, 1563390149931
228, -28832.01, -7659.47, -38151.66, 0.00, 0.00, 0.00, 0.00, 0.00, 0.000, 0.000, 0.000, 15:02:29.931, 1563390149931
229, -29051.28, -7872.49, -38363.01, 0.00, 0.00, 0.00, 0.00, 0.00, 0.000, 0.000, 0.000, 15:02:29.931, 1563390149931
230, -28757.51, -7596.58, -38065.51, 0.00, 0.00, 0.00, 0.00, 0.00, 0.090, 0.040, 1.030, 15:02:29.931, 1563390149931
231, -28460.07, -7305.96, -37775.81, 0.00, 0.00, 0.00, 0.00, 0.00, 0.000, 0.000, 0.000, 15:02:29.931, 1563390149931
232, -28728.47, -7552.48, -38037.06, 0.00, 0.00, 0.00, 0.00, 0.00, 0.000, 0.000, 0.000, 15:02:29.931, 1563390149931
233, -29002.04, -7821.52, -38296.63, 0.00, 0.00, 0.00, 0.00, 0.00, 0.000, 0.000, 0.000, 15:02:29.932, 1563390149932
234, -28826.31, -7645.23, -38118.93, 0.00, 0.00, 0.00, 0.00, 0.00, 0.000, 0.000, 0.000, 15:02:29.932, 1563390149932
235, -28445.79, -7262.57, -37741.50, 0.00, 0.00, 0.00, 0.00, 0.00, 0.000, 0.000, 0.000, 15:02:29.932, 1563390149932
236, -28624.63, -7432.27, -37910.84, 0.00, 0.00, 0.00, 0.00, 0.00, 0.000, 0.000, 0.000, 15:02:29.932, 1563390149932
237, -28934.71, -7736.59, -38217.50, 0.00, 0.00, 0.00, 0.00, 0.00, 0.000, 0.000, 0.000, 15:02:29.932, 1563390149932
238, -28836.03, -7636.38, -38123.45, 0.00, 0.00, 0.00, 0.00, 0.00, 0.000, 0.000, 0.000, 15:02:29.932, 1563390149932
239, -28430.17, -7245.41, -37716.27, 0.00, 0.00, 0.00, 0.00, 0.00, 0.000, 0.000, 0.000, 15:02:29.932, 1563390149932
240, -28526.84, -7328.89, -37814.84, 0.00, 0.00, 0.00, 0.00, 0.00, 0.000, 0.000, 0.000, 15:02:29.932, 1563390149932
241, -28858.85, -7642.55, -38147.92, 0.00, 0.00, 0.00, 0.00, 0.00, 0.082, 0.038, 1.030, 15:02:29.932, 1563390149932
242, -28856.59, -7660.81, -38131.76, 0.00, 0.00, 0.00, 0.00, 0.00, 0.000, 0.000, 0.000, 15:02:29.932, 1563390149932
243, -28444.99, -7268.47, -37719.06, 0.00, 0.00, 0.00, 0.00, 0.00, 0.000, 0.000, 0.000, 15:02:29.932, 1563390149932
244, -28475.36, -7268.61, -37759.36, 0.00, 0.00, 0.00, 0.00, 0.00, 0.000, 0.000, 0.000, 15:02:29.932, 1563390149932
245, -28849.42, -7636.00, -38126.46, 0.00, 0.00, 0.00, 0.00, 0.00, 0.000, 0.000, 0.000, 15:02:29.933, 1563390149933
246, -28922.96, -7716.07, -38204.18, 0.00, 0.00, 0.00, 0.00, 0.00, 0.000, 0.000, 0.000, 15:02:29.933, 1563390149933
247, -28526.23, -7337.41, -37810.19, 0.00, 0.00, 0.00, 0.00, 0.00, 0.000, 0.000, 0.000, 15:02:29.933, 1563390149933
248, -28445.32, -7262.80, -37726.77, 0.00, 0.00, 0.00, 0.00, 0.00, 0.000, 0.000, 0.000, 15:02:29.933, 1563390149933
249, -28807.46, -7617.90, -38095.82, 0.00, 0.00, 0.00, 0.00, 0.00, 0.000, 0.000, 0.000, 15:02:29.933, 1563390149933
250, -28982.66, -7792.22, -38268.31, 0.00, 0.00, 0.00, 0.00, 0.00, 0.000, 0.000, 0.000, 15:02:29.933, 1563390149933
251, -28651.58, -7490.43, -37932.90, 0.00, 0.00, 0.00, 0.00, 0.00, 0.090, 0.042, 1.032, 15:02:29.933, 1563390149933
252, -28466.42, -7301.40, -37743.76, 0.00, 0.00, 0.00, 0.00, 0.00, 0.000, 0.000, 0.000, 15:02:29.933, 1563390149933
253, -28816.47, -7630.68, -38080.09, 0.00, 0.00, 0.00, 0.00, 0.00, 0.000, 0.000, 0.000, 15:02:29.933, 1563390149933
254, -29060.20, -7872.11, -38321.75, 0.00, 0.00, 0.00, 0.00, 0.00, 0.000, 0.000, 0.000, 15:02:29.933, 1563390149933
255, -28813.57, -7614.39, -38067.32, 0.00, 0.00, 0.00, 0.00, 0.00, 0.000, 0.000, 0.000, 15:02:29.933, 1563390149933
0, -28560.86, -7354.28, -37822.64, 0.00, 0.00, 0.00, 0.00, 0.00, 0.000, 0.000, 0.000, 15:02:29.933, 1563390149933
1, -28854.67, -7647.34, -38132.81, 0.00, 0.00, 0.00, 0.00, 0.00, 0.000, 0.000, 0.000, 15:02:29.934, 1563390149934
2, -29147.61, -7916.52, -38404.34, 0.00, 0.00, 0.00, 0.00, 0.00, 0.000, 0.000, 0.000, 15:02:29.934, 1563390149934
3, -28964.13, -7731.51, -38198.62, 0.00, 0.00, 0.00, 0.00, 0.00, 0.000, 0.000, 0.000, 15:02:29.934, 1563390149934
4, -28620.07, -7414.21, -37866.89, 0.00, 0.00, 0.00, 0.00, 0.00, 0.000, 0.000, 0.000, 15:02:29.934, 1563390149934
5, -28831.40, -7596.11, -38085.23, 0.00, 0.00, 0.00, 0.00, 0.00, 0.090, 0.036, 1.028, 15:02:29.934, 1563390149934
6, -29167.60, -7914.77, -38410.53, 0.00, 0.00, 0.00, 0.00, 0.00, 0.000, 0.000, 0.000, 15:02:29.935, 1563390149935
7, -29043.41, -7805.77, -38286.41, 0.00, 0.00, 0.00, 0.00, 0.00, 0.000, 0.000, 0.000, 15:02:29.935, 1563390149935
8, -28646.53, -7441.23, -37905.74, 0.00, 0.00, 0.00, 0.00, 0.00, 0.000, 0.000, 0.000, 15:02:29.935, 1563390149935
9, -28794.16, -7583.30, -38057.00, 0.00, 0.00, 0.00, 0.00, 0.00, 0.000, 0.000, 0.000, 15:02:29.935, 1563390149935
10, -29155.44, -7919.74, -38411.05, 0.00, 0.00, 0.00, 0.00, 0.00, 0.000, 0.000, 0.000, 15:02:29.935, 1563390149935
11, -29143.07, -7919.09, -38385.39, 0.00, 0.00, 0.00, 0.00, 0.00, 0.000, 0.000, 0.000, 15:02:29.935, 1563390149935
12, -28710.05, -7525.21, -37984.66, 0.00, 0.00, 0.00, 0.00, 0.00, 0.000, 0.000, 0.000, 15:02:29.935, 1563390149935
13, -28734.51, -7531.02, -37988.58, 0.00, 0.00, 0.00, 0.00, 0.00, 0.000, 0.000, 0.000, 15:02:29.935, 1563390149935
14, -29095.27, -7867.12, -38349.47, 0.00, 0.00, 0.00, 0.00, 0.00, 0.000, 0.000, 0.000, 15:02:29.936, 1563390149936
15, -29168.96, -7960.66, -38426.29, 0.00, 0.00, 0.00, 0.00, 0.00, 0.090, 0.038, 1.024, 15:02:29.936, 1563390149936
16, -28773.64, -7590.72, -38039.85, 0.00, 0.00, 0.00, 0.00, 0.00, 0.000, 0.000, 0.000, 15:02:29.936, 1563390149936
17, -28679.23, -7487.88, -37943.29, 0.00, 0.00, 0.00, 0.00, 0.00, 0.000, 0.000, 0.000, 15:02:29.936, 1563390149936
18, -29042.38, -7831.29, -38294.93, 0.00, 0.00, 0.00, 0.00, 0.00, 0.000, 0.000, 0.000, 15:02:29.936, 1563390149936
19, -29198.80, -7992.67, -38445.94, 0.00, 0.00, 0.00, 0.00, 0.00, 0.000, 0.000, 0.000, 15:02:29.936, 1563390149936
20, -28854.36, -7651.45, -38104.45, 0.00, 0.00, 0.00, 0.00, 0.00, 0.000, 0.000, 0.000, 15:02:29.936, 1563390149936
21, -28652.12, -7454.11, -37917.59, 0.00, 0.00, 0.00, 0.00, 0.00, 0.000, 0.000, 0.000, 15:02:29.936, 1563390149936
22, -28965.27, -7742.51, -38225.15, 0.00, 0.00, 0.00, 0.00, 0.00, 0.000, 0.000, 0.000, 15:02:29.936, 1563390149936
23, -29203.89, -7974.48, -38458.79, 0.00, 0.00, 0.00, 0.00, 0.00, 0.000, 0.000, 0.000, 15:02:29.936, 1563390149936
24, -28910.42, -7704.22, -38158.18, 0.00, 0.00, 0.00, 0.00, 0.00, 0.000, 0.000, 0.000, 15:02:29.936, 1563390149936
25, -28636.16, -7444.25, -37904.11, 0.00, 0.00, 0.00, 0.00, 0.00, 0.088, 0.038, 1.026, 15:02:29.936, 1563390149936
26, -28896.83, -7679.70, -38168.80, 0.00, 0.00, 0.00, 0.00, 0.00, 0.000, 0.000, 0.000, 15:02:29.936, 1563390149936
27, -29157.78, -7925.41, -38423.18, 0.00, 0.00, 0.00, 0.00, 0.00, 0.000, 0.000, 0.000, 15:02:29.936, 1563390149936
28, -28972.98, -7754.00, -38237.48, 0.00, 0.00, 0.00, 0.00, 0.00, 0.000, 0.000, 0.000, 15:02:29.936, 1563390149936
29, -28637.95, -7427.51, -37906.68, 0.00, 0.00, 0.00, 0.00, 0.00, 0.000, 0.000, 0.000, 15:02:29.936, 1563390149936
30, -28840.88, -7624.60, -38102.84, 0.00, 0.00, 0.00, 0.00, 0.00, 0.000, 0.000, 0.000, 15:02:29.936, 1563390149936
31, -29155.21, -7943.88, -38427.83, 0.00, 0.00, 0.00, 0.00, 0.00, 0.000, 0.000, 0.000, 15:02:29.936, 1563390149936
32, -29028.59, -7817.88, -38310.62, 0.00, 0.00, 0.00, 0.00, 0.00, 0.000, 0.000, 0.000, 15:02:29.936, 1563390149936
33, -28621.25, -7425.27, -37909.77, 0.00, 0.00, 0.00, 0.00, 0.00, 0.000, 0.000, 0.000, 15:02:29.936, 1563390149936
34, -28724.00, -7530.19, -38011.98, 0.00, 0.00, 0.00, 0.00, 0.00, 0.000, 0.000, 0.000, 15:02:29.936, 1563390149936
35, -29088.78, -7892.09, -38383.73, 0.00, 0.00, 0.00, 0.00, 0.00, 0.000, 0.000, 0.000, 15:02:29.936, 1563390149936
36, -29104.47, -7924.68, -38395.69, 0.00, 0.00, 0.00, 0.00, 0.00, 0.094, 0.040, 1.026, 15:02:29.937, 1563390149937
37, -28695.50, -7535.53, -37981.80, 0.00, 0.00, 0.00, 0.00, 0.00, 0.000, 0.000, 0.000, 15:02:29.937, 1563390149937
38, -28723.80, -7538.80, -38006.86, 0.00, 0.00, 0.00, 0.00, 0.00, 0.000, 0.000, 0.000, 15:02:29.937, 1563390149937
39, -29077.18, -7876.08, -38349.49, 0.00, 0.00, 0.00, 0.00, 0.00, 0.000, 0.000, 0.000, 15:02:29.937, 1563390149937
40, -29154.94, -7968.24, -38419.34, 0.00, 0.00, 0.00, 0.00, 0.00, 0.000, 0.000, 0.000, 15:02:29.937, 1563390149937
41, -28753.78, -7582.58, -38030.62, 0.00, 0.00, 0.00, 0.00, 0.00, 0.000, 0.000, 0.000, 15:02:29.937, 1563390149937
42, -28672.28, -7478.89, -37946.73, 0.00, 0.00, 0.00, 0.00, 0.00, 0.000, 0.000, 0.000, 15:02:29.937, 1563390149937
43, -29021.66, -7812.09, -38294.73, 0.00, 0.00, 0.00, 0.00, 0.00, 0.000, 0.000, 0.000, 15:02:29.937, 1563390149937
44, -29182.71, -7973.56, -38468.60, 0.00, 0.00, 0.00, 0.00, 0.00, 0.000, 0.000, 0.000, 15:02:29.937, 1563390149937
45, -28826.28, -7647.81, -38107.20, 0.00, 0.00, 0.00, 0.00, 0.00, 0.000, 0.000, 0.000, 15:02:29.937, 1563390149937
46, -28641.84, -7458.80, -37926.95, 0.00, 0.00, 0.00, 0.00, 0.00, 0.094, 0.044, 1.028, 15:02:29.937, 1563390149937
47, -28974.07, -7760.66, -38245.87, 0.00, 0.00, 0.00, 0.00, 0.00, 0.000, 0.000, 0.000, 15:02:29.937, 1563390149937
48, -29173.99, -7954.18, -38445.11, 0.00, 0.00, 0.00, 0.00, 0.00, 0.000, 0.000, 0.000, 15:02:29.937, 1563390149937
49, -28900.13, -7700.78, -38176.31, 0.00, 0.00, 0.00, 0.00, 0.00, 0.000, 0.000, 0.000, 15:02:29.937, 1563390149937
50, -28630.37, -7434.82, -37910.05, 0.00, 0.00, 0.00, 0.00, 0.00, 0.000, 0.000, 0.000, 15:02:29.937, 1563390149937
51, -28896.29, -7676.73, -38174.34, 0.00, 0.00, 0.00, 0.00, 0.00, 0.000, 0.000, 0.000, 15:02:29.937, 1563390149937
52, -29178.05, -7948.64, -38453.54, 0.00, 0.00, 0.00, 0.00, 0.00, 0.000, 0.000, 0.000, 15:02:29.937, 1563390149937
53, -28967.26, -7756.03, -38234.00, 0.00, 0.00, 0.00, 0.00, 0.00, 0.000, 0.000, 0.000, 15:02:29.937, 1563390149937
54, -28602.45, -7402.83, -37862.22, 0.00, 0.00, 0.00, 0.00, 0.00, 0.000, 0.000, 0.000, 15:02:29.937, 1563390149937
55, -28806.44, -7594.43, -38078.59, 0.00, 0.00, 0.00, 0.00, 0.00, 0.000, 0.000, 0.000, 15:02:29.937, 1563390149937
56, -29123.63, -7913.95, -38402.35, 0.00, 0.00, 0.00, 0.00, 0.00, 0.090, 0.046, 1.030, 15:02:29.937, 1563390149937
57, -28989.74, -7796.47, -38267.59, 0.00, 0.00, 0.00, 0.00, 0.00, 0.000, 0.000, 0.000, 15:02:29.937, 1563390149937
58, -28606.46, -7423.22, -37887.03, 0.00, 0.00, 0.00, 0.00, 0.00, 0.000, 0.000, 0.000, 15:02:29.937, 1563390149937
59, -28761.38, -7573.04, -38037.64, 0.00, 0.00, 0.00, 0.00, 0.00, 0.000, 0.000, 0.000, 15:02:29.937, 1563390149937
60, -29109.14, -7932.88, -38390.73, 0.00, 0.00, 0.00, 0.00, 0.00, 0.000, 0.000, 0.000, 15:02:29.937, 1563390149937
61, -29059.35, -7893.32, -38335.52, 0.00, 0.00, 0.00, 0.00, 0.00, 0.000, 0.000, 0.000, 15:02:29.937, 1563390149937
62, -28631.80, -7464.90, -37913.81, 0.00, 0.00, 0.00, 0.00, 0.00, 0.000, 0.000, 0.000, 15:02:29.937, 1563390149937
63, -28657.04, -7471.45, -37936.36, 0.00, 0.00, 0.00, 0.00, 0.00, 0.000, 0.000, 0.000, 15:02:29.937, 1563390149937
64, -29022.22, -7817.63, -38287.66, 0.00, 0.00, 0.00, 0.00, 0.00, 0.000, 0.000, 0.000, 15:02:29.937, 1563390149937
65, -29118.02, -7916.90, -38381.30, 0.00, 0.00, 0.00, 0.00, 0.00, 0.000, 0.000, 0.000, 15:02:29.937, 1563390149937
66, -28701.52, -7530.57, -37976.13, 0.00, 0.00, 0.00, 0.00, 0.00, 0.084, 0.048, 1.028, 15:02:29.938, 1563390149938
67, -28603.66, -7419.21, -37880.89, 0.00, 0.00, 0.00, 0.00, 0.00, 0.000, 0.000, 0.000, 15:02:29.938, 1563390149938
68, -28990.95, -7764.08, -38249.78, 0.00, 0.00, 0.00, 0.00, 0.00, 0.000, 0.000, 0.000, 15:02:29.938, 1563390149938
69, -29177.72, -7951.83, -38424.86, 0.00, 0.00, 0.00, 0.00, 0.00, 0.000, 0.000, 0.000, 15:02:29.938, 1563390149938
70, -28820.32, -7614.14, -38059.45, 0.00, 0.00, 0.00, 0.00, 0.00, 0.000, 0.000, 0.000, 15:02:29.938, 1563390149938
71, -28687.72, -7469.15, -37932.63, 0.00, 0.00, 0.00, 0.00, 0.00, 0.000, 0.000, 0.000, 15:02:29.938, 1563390149938
72, -29013.41, -7784.91, -38237.93, 0.00, 0.00, 0.00, 0.00, 0.00, 0.000, 0.000, 0.000, 15:02:29.938, 1563390149938
73, -29244.51, -8018.22, -38482.80, 0.00, 0.00, 0.00, 0.00, 0.00, 0.000, 0.000, 0.000, 15:02:29.938, 1563390149938
74, -28956.17, -7742.62, -38208.65, 0.00, 0.00, 0.00, 0.00, 0.00, 0.000, 0.000, 0.000, 15:02:29.938, 1563390149938
75, -28678.23, -7469.37, -37932.94, 0.00, 0.00, 0.00, 0.00, 0.00, 0.000, 0.000, 0.000, 15:02:29.938, 1563390149938
76, -28942.31, -7707.53, -38197.45, 0.00, 0.00, 0.00, 0.00, 0.00, 0.092, 0.046, 1.030, 15:02:29.938, 1563390149938
77, -29208.21, -7970.81, -38451.64, 0.00, 0.00, 0.00, 0.00, 0.00, 0.000, 0.000, 0.000, 15:02:29.938, 1563390149938
78, -29005.41, -7799.02, -38241.69, 0.00, 0.00, 0.00, 0.00, 0.00, 0.000, 0.000, 0.000, 15:02:29.938, 1563390149938
79, -28678.99, -7470.56, -37920.09, 0.00, 0.00, 0.00, 0.00, 0.00, 0.000, 0.000, 0.000, 15:02:29.938, 1563390149938
80, -28898.08, -7667.12, -38148.88, 0.00, 0.00, 0.00, 0.00, 0.00, 0.000, 0.000, 0.000, 15:02:29.938, 1563390149938
81, -29212.88, -7992.89, -38473.36, 0.00, 0.00, 0.00, 0.00, 0.00, 0.000, 0.000, 0.000, 15:02:29.938, 1563390149938
82, -29100.81, -7900.87, -38346.92, 0.00, 0.00, 0.00, 0.00, 0.00, 0.000, 0.000, 0.000, 15:02:29.938, 1563390149938
83, -28685.31, -7497.98, -37943.92, 0.00, 0.00, 0.00, 0.00, 0.00, 0.000, 0.000, 0.000, 15:02:29.938, 1563390149938
84, -28819.09, -7632.47, -38081.54, 0.00, 0.00, 0.00, 0.00, 0.00, 0.000, 0.000, 0.000, 15:02:29.938, 1563390149938
85, -29157.63, -7968.22, -38416.75, 0.00, 0.00, 0.00, 0.00, 0.00, 0.000, 0.000, 0.000, 15:02:29.938, 1563390149938
86, -29160.35, -7983.55, -38429.78, 0.00, 0.00, 0.00, 0.00, 0.00, 0.088, 0.046, 1.032, 15:02:29.939, 1563390149939
87, -28757.17, -7593.71, -38025.82, 0.00, 0.00, 0.00, 0.00, 0.00, 0.000, 0.000, 0.000, 15:02:29.939, 1563390149939
88, -28778.14, -7602.50, -38038.04, 0.00, 0.00, 0.00, 0.00, 0.00, 0.000, 0.000, 0.000, 15:02:29.939, 1563390149939
89, -29066.01, -7872.82, -38333.20, 0.00, 0.00, 0.00, 0.00, 0.00, 0.000, 0.000, 0.000, 15:02:29.939, 1563390149939
90, -28987.15, -7780.80, -38255.59, 0.00, 0.00, 0.00, 0.00, 0.00, 0.000, 0.000, 0.000, 15:02:29.939, 1563390149939
91, -28445.41, -7262.80, -37713.27, 0.00, 0.00, 0.00, 0.00, 0.00, 0.000, 0.000, 0.000, 15:02:30.411, 1563390150411
92, -28181.95, -7000.25, -37437.65, 0.00, 0.00, 0.00, 0.00, 0.00, 0.000, 0.000, 0.000, 15:02:30.411, 1563390150411
93, -28372.50, -7163.71, -37626.86, 0.00, 0.00, 0.00, 0.00, 0.00, 0.000, 0.000, 0.000, 15:02:30.411, 1563390150411
94, -28420.04, -7211.54, -37679.95, 0.00, 0.00, 0.00, 0.00, 0.00, 0.000, 0.000, 0.000, 15:02:30.411, 1563390150411
95, -28121.11, -6936.53, -37369.79, 0.00, 0.00, 0.00, 0.00, 0.00, 0.000, 0.000, 0.000, 15:02:30.411, 1563390150411
96, -28161.32, -6950.21, -37400.03, 0.00, 0.00, 0.00, 0.00, 0.00, 0.000, 0.000, 0.000, 15:02:30.411, 1563390150411
97, -28776.62, -7540.49, -38030.53, 0.00, 0.00, 0.00, 0.00, 0.00, 0.086, 0.048, 1.030, 15:02:30.411, 1563390150411
98, -29208.07, -7972.35, -38463.24, 0.00, 0.00, 0.00, 0.00, 0.00, 0.000, 0.000, 0.000, 15:02:30.411, 1563390150411
99, -28981.09, -7776.42, -38237.98, 0.00, 0.00, 0.00, 0.00, 0.00, 0.000, 0.000, 0.000, 15:02:30.411, 1563390150411
100, -28694.43, -7509.49, -37956.64, 0.00, 0.00, 0.00, 0.00, 0.00, 0.000, 0.000, 0.000, 15:02:30.411, 1563390150411
101, -28923.04, -7723.06, -38191.08, 0.00, 0.00, 0.00, 0.00, 0.00, 0.000, 0.000, 0.000, 15:02:30.411, 1563390150411
102, -29194.48, -7967.37, -38463.55, 0.00, 0.00, 0.00, 0.00, 0.00, 0.000, 0.000, 0.000, 15:02:30.411, 1563390150411
103, -28987.80, -7775.81, -38247.43, 0.00, 0.00, 0.00, 0.00, 0.00, 0.000, 0.000, 0.000, 15:02:30.411, 1563390150411
104, -28643.11, -7456.36, -37910.84, 0.00, 0.00, 0.00, 0.00, 0.00, 0.000, 0.000, 0.000, 15:02:30.411, 1563390150411
105, -28858.36, -7673.13, -38132.37, 0.00, 0.00, 0.00, 0.00, 0.00, 0.000, 0.000, 0.000, 15:02:30.411, 1563390150411
106, -29152.84, -7967.50, -38423.25, 0.00, 0.00, 0.00, 0.00, 0.00, 0.000, 0.000, 0.000, 15:02:30.411, 1563390150411
107, -29018.31, -7852.30, -38289.59, 0.00, 0.00, 0.00, 0.00, 0.00, 0.086, 0.044, 1.028, 15:02:30.412, 1563390150412
108, -28608.47, -7453.84, -37886.81, 0.00, 0.00, 0.00, 0.00, 0.00, 0.000, 0.000, 0.000, 15:02:30.412, 1563390150412
109, -28745.19, -7583.16, -38030.98, 0.00, 0.00, 0.00, 0.00, 0.00, 0.000, 0.000, 0.000, 15:02:30.412, 1563390150412
110, -29095.49, -7924.07, -38379.60, 0.00, 0.00, 0.00, 0.00, 0.00, 0.000, 0.000, 0.000, 15:02:30.412, 1563390150412
111, -29047.34, -7889.56, -38344.62, 0.00, 0.00, 0.00, 0.00, 0.00, 0.000, 0.000, 0.000, 15:02:30.412, 1563390150412
112, -28617.27, -7475.09, -37916.78, 0.00, 0.00, 0.00, 0.00, 0.00, 0.000, 0.000, 0.000, 15:02:30.412, 1563390150412
113, -28658.89, -7499.52, -37948.70, 0.00, 0.00, 0.00, 0.00, 0.00, 0.000, 0.000, 0.000, 15:02:30.412, 1563390150412
114, -29017.99, -7834.24, -38305.95, 0.00, 0.00, 0.00, 0.00, 0.00, 0.000, 0.000, 0.000, 15:02:30.412, 1563390150412
115, -29075.97, -7897.74, -38358.63, 0.00, 0.00, 0.00, 0.00, 0.00, 0.000, 0.000, 0.000, 15:02:30.412, 1563390150412
116, -28657.19, -7505.09, -37938.46, 0.00, 0.00, 0.00, 0.00, 0.00, 0.000, 0.000, 0.000, 15:02:30.412, 1563390150412
117, -28608.51, -7450.13, -37891.82, 0.00, 0.00, 0.00, 0.00, 0.00, 0.084, 0.040, 1.026, 15:02:30.412, 1563390150412
118, -28942.87, -7753.02, -38223.76, 0.00, 0.00, 0.00, 0.00, 0.00, 0.000, 0.000, 0.000, 15:02:30.412, 1563390150412
119, -29080.91, -7892.49, -38367.13, 0.00, 0.00, 0.00, 0.00, 0.00, 0.000, 0.000, 0.000, 15:02:30.412, 1563390150412
120, -28705.81, -7517.18, -38001.92, 0.00, 0.00, 0.00, 0.00, 0.00, 0.000, 0.000, 0.000, 15:02:30.412, 1563390150412
121, -28520.29, -7342.70, -37820.27, 0.00, 0.00, 0.00, 0.00, 0.00, 0.000, 0.000, 0.000, 15:02:30.412, 1563390150412
122, -28839.99, -7650.58, -38130.71, 0.00, 0.00, 0.00, 0.00, 0.00, 0.000, 0.000, 0.000, 15:02:30.412, 1563390150412
123, -29062.21, -7873.27, -38349.27, 0.00, 0.00, 0.00, 0.00, 0.00, 0.000, 0.000, 0.000, 15:02:30.412, 1563390150412
124, -28756.39, -7591.19, -38046.60, 0.00, 0.00, 0.00, 0.00, 0.00, 0.000, 0.000, 0.000, 15:02:30.412, 1563390150412
125, -28471.36, -7314.03, -37773.57, 0.00, 0.00, 0.00, 0.00, 0.00, 0.000, 0.000, 0.000, 15:02:30.412, 1563390150412
126, -28744.70, -7579.05, -38049.35, 0.00, 0.00, 0.00, 0.00, 0.00, 0.000, 0.000, 0.000, 15:02:30.412, 1563390150412
127, -28996.27, -7829.84, -38305.28, 0.00, 0.00, 0.00, 0.00, 0.00, 0.092, 0.040, 1.024, 15:02:30.412, 1563390150412
128, -28771.03, -7627.82, -38075.95, 0.00, 0.00, 0.00, 0.00, 0.00, 0.000, 0.000, 0.000, 15:02:30.412, 1563390150412
129, -28421.00, -7313.22, -37745.77, 0.00, 0.00, 0.00, 0.00, 0.00, 0.000, 0.000, 0.000, 15:02:30.412, 1563390150412
130, -28627.09, -7508.87, -37946.60, 0.00, 0.00, 0.00, 0.00, 0.00, 0.000, 0.000, 0.000, 15:02:30.412, 1563390150412
131, -28936.59, -7781.74, -38251.10, 0.00, 0.00, 0.00, 0.00, 0.00, 0.000, 0.000, 0.000, 15:02:30.412, 1563390150412
132, -28814.17, -7678.61, -38123.74, 0.00, 0.00, 0.00, 0.00, 0.00, 0.000, 0.000, 0.000, 15:02:30.412, 1563390150412
133, -28384.28, -7272.81, -37698.88, 0.00, 0.00, 0.00, 0.00, 0.00, 0.000, 0.000, 0.000, 15:02:30.412, 1563390150412
134, -28507.79, -7375.43, -37826.13, 0.00, 0.00, 0.00, 0.00, 0.00, 0.000, 0.000, 0.000, 15:02:30.412, 1563390150412
135, -28857.93, -7702.61, -38170.77, 0.00, 0.00, 0.00, 0.00, 0.00, 0.000, 0.000, 0.000, 15:02:30.412, 1563390150412
136, -28833.50, -7683.95, -38130.04, 0.00, 0.00, 0.00, 0.00, 0.00, 0.000, 0.000, 0.000, 15:02:30.412, 1563390150412
137, -28400.64, -7267.45, -37701.60, 0.00, 0.00, 0.00, 0.00, 0.00, 0.086, 0.040, 1.024, 15:02:30.412, 1563390150412
138, -28428.62, -7276.07, -37743.85, 0.00, 0.00, 0.00, 0.00, 0.00, 0.000, 0.000, 0.000, 15:02:30.412, 1563390150412
139, -28782.65, -7611.24, -38085.94, 0.00, 0.00, 0.00, 0.00, 0.00, 0.000, 0.000, 0.000, 15:02:30.412, 1563390150412
140, -28832.03, -7658.76, -38119.98, 0.00, 0.00, 0.00, 0.00, 0.00, 0.000, 0.000, 0.000, 15:02:30.412, 1563390150412
141, -28441.01, -7288.84, -37736.36, 0.00, 0.00, 0.00, 0.00, 0.00, 0.000, 0.000, 0.000, 15:02:30.413, 1563390150413
142, -28365.05, -7213.98, -37671.54, 0.00, 0.00, 0.00, 0.00, 0.00, 0.000, 0.000, 0.000, 15:02:30.413, 1563390150413
143, -28697.83, -7534.30, -38007.48, 0.00, 0.00, 0.00, 0.00, 0.00, 0.000, 0.000, 0.000, 15:02:30.413, 1563390150413
144, -28865.85, -7691.59, -38179.04, 0.00, 0.00, 0.00, 0.00, 0.00, 0.000, 0.000, 0.000, 15:02:30.413, 1563390150413
145, -28493.87, -7332.06, -37804.44, 0.00, 0.00, 0.00, 0.00, 0.00, 0.000, 0.000, 0.000, 15:02:30.413, 1563390150413
146, -28331.04, -7178.42, -37647.96, 0.00, 0.00, 0.00, 0.00, 0.00, 0.000, 0.000, 0.000, 15:02:30.413, 1563390150413
147, -28671.23, -7503.12, -37982.77, 0.00, 0.00, 0.00, 0.00, 0.00, 0.000, 0.000, 0.000, 15:02:30.413, 1563390150413
148, -28893.12, -7730.57, -38189.72, 0.00, 0.00, 0.00, 0.00, 0.00, 0.086, 0.038, 1.028, 15:02:30.413, 1563390150413
149, -28607.37, -7471.12, -37913.48, 0.00, 0.00, 0.00, 0.00, 0.00, 0.000, 0.000, 0.000, 15:02:30.413, 1563390150413
150, -28375.20, -7256.43, -37701.18, 0.00, 0.00, 0.00, 0.00, 0.00, 0.000, 0.000, 0.000, 15:02:30.413, 1563390150413
151, -28655.47, -7528.67, -37977.20, 0.00, 0.00, 0.00, 0.00, 0.00, 0.000, 0.000, 0.000, 15:02:30.413, 1563390150413
152, -28931.85, -7804.45, -38259.57, 0.00, 0.00, 0.00, 0.00, 0.00, 0.000, 0.000, 0.000, 15:02:30.413, 1563390150413
153, -28730.62, -7622.73, -38062.70, 0.00, 0.00, 0.00, 0.00, 0.00, 0.000, 0.000, 0.000, 15:02:30.413, 1563390150413
154, -28427.24, -7331.62, -37757.13, 0.00, 0.00, 0.00, 0.00, 0.00, 0.000, 0.000, 0.000, 15:02:30.413, 1563390150413
155, -28668.57, -7551.29, -37989.00, 0.00, 0.00, 0.00, 0.00, 0.00, 0.000, 0.000, 0.000, 15:02:30.413, 1563390150413
156, -29002.97, -7867.79, -38321.57, 0.00, 0.00, 0.00, 0.00, 0.00, 0.000, 0.000, 0.000, 15:02:30.413, 1563390150413
157, -28883.01, -7758.04, -38207.55, 0.00, 0.00, 0.00, 0.00, 0.00, 0.000, 0.000, 0.000, 15:02:30.413, 1563390150413
158, -28492.06, -7380.12, -37820.38, 0.00, 0.00, 0.00, 0.00, 0.00, 0.086, 0.046, 1.020, 15:02:30.413, 1563390150413
159, -28648.70, -7520.85, -37967.48, 0.00, 0.00, 0.00, 0.00, 0.00, 0.000, 0.000, 0.000, 15:02:30.413, 1563390150413
160, -28997.32, -7851.88, -38315.29, 0.00, 0.00, 0.00, 0.00, 0.00, 0.000, 0.000, 0.000, 15:02:30.413, 1563390150413
161, -29001.97, -7859.30, -38312.12, 0.00, 0.00, 0.00, 0.00, 0.00, 0.000, 0.000, 0.000, 15:02:30.413, 1563390150413
162, -28592.39, -7472.77, -37911.26, 0.00, 0.00, 0.00, 0.00, 0.00, 0.000, 0.000, 0.000, 15:02:30.413, 1563390150413
163, -28626.82, -7498.36, -37946.51, 0.00, 0.00, 0.00, 0.00, 0.00, 0.000, 0.000, 0.000, 15:02:30.413, 1563390150413
164, -28975.48, -7814.68, -38291.04, 0.00, 0.00, 0.00, 0.00, 0.00, 0.000, 0.000, 0.000, 15:02:30.413, 1563390150413
165, -29037.64, -7864.10, -38353.38, 0.00, 0.00, 0.00, 0.00, 0.00, 0.000, 0.000, 0.000, 15:02:30.413, 1563390150413
166, -28633.84, -7479.43, -37941.91, 0.00, 0.00, 0.00, 0.00, 0.00, 0.000, 0.000, 0.000, 15:02:30.413, 1563390150413
167, -28547.02, -7384.88, -37860.41, 0.00, 0.00, 0.00, 0.00, 0.00, 0.000, 0.000, 0.000, 15:02:30.414, 1563390150414
168, -28898.48, -7720.76, -38218.60, 0.00, 0.00, 0.00, 0.00, 0.00, 0.084, 0.044, 1.024, 15:02:30.414, 1563390150414
169, -29073.52, -7900.27, -38388.88, 0.00, 0.00, 0.00, 0.00, 0.00, 0.000, 0.000, 0.000, 15:02:30.414, 1563390150414
170, -28730.33, -7575.39, -38032.39, 0.00, 0.00, 0.00, 0.00, 0.00, 0.000, 0.000, 0.000, 15:02:30.414, 1563390150414
171, -28557.08, -7419.21, -37861.04, 0.00, 0.00, 0.00, 0.00, 0.00, 0.000, 0.000, 0.000, 15:02:30.414, 1563390150414
172, -28855.10, -7717.63, -38163.16, 0.00, 0.00, 0.00, 0.00, 0.00, 0.000, 0.000, 0.000, 15:02:30.414, 1563390150414
173, -29065.29, -7919.78, -38395.09, 0.00, 0.00, 0.00, 0.00, 0.00, 0.000, 0.000, 0.000, 15:02:30.414, 1563390150414
174, -28769.31, -7651.27, -38096.74, 0.00, 0.00, 0.00, 0.00, 0.00, 0.000, 0.000, 0.000, 15:02:30.414, 1563390150414
175, -28484.62, -7369.35, -37806.66, 0.00, 0.00, 0.00, 0.00, 0.00, 0.000, 0.000, 0.000, 15:02:30.414, 1563390150414
176, -28770.03, -7631.89, -38093.34, 0.00, 0.00, 0.00, 0.00, 0.00, 0.000, 0.000, 0.000, 15:02:30.414, 1563390150414
177, -29085.25, -7948.75, -38410.29, 0.00, 0.00, 0.00, 0.00, 0.00, 0.000, 0.000, 0.000, 15:02:30.414, 1563390150414
178, -28875.19, -7747.02, -38195.60, 0.00, 0.00, 0.00, 0.00, 0.00, 0.088, 0.050, 1.030, 15:02:30.414, 1563390150414
179, -28521.47, -7403.17, -37837.05, 0.00, 0.00, 0.00, 0.00, 0.00, 0.000, 0.000, 0.000, 15:02:30.414, 1563390150414
180, -28720.85, -7594.90, -38041.08, 0.00, 0.00, 0.00, 0.00, 0.00, 0.000, 0.000, 0.000, 15:02:30.414, 1563390150414
181, -29025.57, -7877.00, -38348.71, 0.00, 0.00, 0.00, 0.00, 0.00, 0.000, 0.000, 0.000, 15:02:30.414, 1563390150414
182, -28903.87, -7758.76, -38215.76, 0.00, 0.00, 0.00, 0.00, 0.00, 0.000, 0.000, 0.000, 15:02:30.414, 1563390150414
183, -28520.82, -7391.25, -37836.52, 0.00, 0.00, 0.00, 0.00, 0.00, 0.000, 0.000, 0.000, 15:02:30.414, 1563390150414
184, -28646.24, -7497.04, -37961.06, 0.00, 0.00, 0.00, 0.00, 0.00, 0.000, 0.000, 0.000, 15:02:30.414, 1563390150414
185, -28992.11, -7825.28, -38297.05, 0.00, 0.00, 0.00, 0.00, 0.00, 0.000, 0.000, 0.000, 15:02:30.414, 1563390150414
186, -28959.54, -7798.32, -38268.29, 0.00, 0.00, 0.00, 0.00, 0.00, 0.000, 0.000, 0.000, 15:02:30.414, 1563390150414
187, -28531.58, -7387.88, -37830.75, 0.00, 0.00, 0.00, 0.00, 0.00, 0.000, 0.000, 0.000, 15:02:30.414, 1563390150414
188, -28586.45, -7432.33, -37895.64, 0.00, 0.00, 0.00, 0.00, 0.00, 0.086, 0.052, 1.032, 15:02:30.414, 1563390150414
189, -28934.94, -7770.45, -38251.10, 0.00, 0.00, 0.00, 0.00, 0.00, 0.000, 0.000, 0.000, 15:02:30.414, 1563390150414
190, -29014.08, -7862.02, -38326.78, 0.00, 0.00, 0.00, 0.00, 0.00, 0.000, 0.000, 0.000, 15:02:30.414, 1563390150414
191, -28620.38, -7499.79, -37934.02, 0.00, 0.00, 0.00, 0.00, 0.00, 0.000, 0.000, 0.000, 15:02:30.414, 1563390150414
192, -28563.05, -7440.07, -37874.07, 0.00, 0.00, 0.00, 0.00, 0.00, 0.000, 0.000, 0.000, 15:02:30.414, 1563390150414
193, -28885.45, -7741.17, -38191.22, 0.00, 0.00, 0.00, 0.00, 0.00, 0.000, 0.000, 0.000, 15:02:30.414, 1563390150414
194, -28998.88, -7835.34, -38302.55, 0.00, 0.00, 0.00, 0.00, 0.00, 0.000, 0.000, 0.000, 15:02:30.414, 1563390150414
195, -28641.37, -7501.29, -37955.21, 0.00, 0.00, 0.00, 0.00, 0.00, 0.000, 0.000, 0.000, 15:02:30.414, 1563390150414
196, -28498.09, -7376.84, -37822.32, 0.00, 0.00, 0.00, 0.00, 0.00, 0.000, 0.000, 0.000, 15:02:30.414, 1563390150414
197, -28825.63, -7696.64, -38149.04, 0.00, 0.00, 0.00, 0.00, 0.00, 0.000, 0.000, 0.000, 15:02:30.414, 1563390150414
198, -29046.67, -7916.74, -38369.79, 0.00, 0.00, 0.00, 0.00, 0.00, 0.088, 0.048, 1.024, 15:02:30.414, 1563390150414
199, -28737.06, -7630.53, -38055.54, 0.00, 0.00, 0.00, 0.00, 0.00, 0.000, 0.000, 0.000, 15:02:30.414, 1563390150414
200, -28453.93, -7350.44, -37779.18, 0.00, 0.00, 0.00, 0.00, 0.00, 0.000, 0.000, 0.000, 15:02:30.414, 1563390150414
201, -28733.17, -7602.70, -38045.55, 0.00, 0.00, 0.00, 0.00, 0.00, 0.000, 0.000, 0.000, 15:02:30.414, 1563390150414
202, -29032.79, -7893.65, -38332.05, 0.00, 0.00, 0.00, 0.00, 0.00, 0.000, 0.000, 0.000, 15:02:30.415, 1563390150415
203, -28839.20, -7720.43, -38149.04, 0.00, 0.00, 0.00, 0.00, 0.00, 0.000, 0.000, 0.000, 15:02:30.415, 1563390150415
204, -28514.50, -7407.79, -37829.14, 0.00, 0.00, 0.00, 0.00, 0.00, 0.000, 0.000, 0.000, 15:02:30.415, 1563390150415
205, -28704.85, -7582.63, -38018.24, 0.00, 0.00, 0.00, 0.00, 0.00, 0.000, 0.000, 0.000, 15:02:30.415, 1563390150415
206, -28995.35, -7853.60, -38309.70, 0.00, 0.00, 0.00, 0.00, 0.00, 0.000, 0.000, 0.000, 15:02:30.415, 1563390150415
207, -28864.59, -7729.30, -38179.53, 0.00, 0.00, 0.00, 0.00, 0.00, 0.000, 0.000, 0.000, 15:02:30.415, 1563390150415
208, -28483.99, -7365.95, -37802.99, 0.00, 0.00, 0.00, 0.00, 0.00, 0.000, 0.000, 0.000, 15:02:30.415, 1563390150415
209, -28599.28, -7466.38, -37904.67, 0.00, 0.00, 0.00, 0.00, 0.00, 0.084, 0.042, 1.028, 15:02:30.415, 1563390150415
210, -28945.87, -7782.41, -38249.71, 0.00, 0.00, 0.00, 0.00, 0.00, 0.000, 0.000, 0.000, 15:02:30.415, 1563390150415
211, -28929.44, -7778.32, -38236.95, 0.00, 0.00, 0.00, 0.00, 0.00, 0.000, 0.000, 0.000, 15:02:30.891, 1563390150891
212, -28517.34, -7385.06, -37826.82, 0.00, 0.00, 0.00, 0.00, 0.00, 0.000, 0.000, 0.000, 15:02:30.891, 1563390150891
213, -28530.75, -7383.14, -37838.95, 0.00, 0.00, 0.00, 0.00, 0.00, 0.000, 0.000, 0.000, 15:02:30.891, 1563390150891
214, -28896.36, -7732.29, -38204.85, 0.00, 0.00, 0.00, 0.00, 0.00, 0.000, 0.000, 0.000, 15:02:30.891, 1563390150891
215, -28972.53, -7821.48, -38282.14, 0.00, 0.00, 0.00, 0.00, 0.00, 0.000, 0.000, 0.000, 15:02:30.891, 1563390150891
216, -28572.17, -7452.34, -37891.50, 0.00, 0.00, 0.00, 0.00, 0.00, 0.000, 0.000, 0.000, 15:02:30.891, 1563390150891
217, -28503.10, -7393.08, -37824.00, 0.00, 0.00, 0.00, 0.00, 0.00, 0.000, 0.000, 0.000, 15:02:30.891, 1563390150891
218, -28829.86, -7712.96, -38149.78, 0.00, 0.00, 0.00, 0.00, 0.00, 0.000, 0.000, 0.000, 15:02:30.891, 1563390150891
219, -28979.53, -7863.88, -38295.51, 0.00, 0.00, 0.00, 0.00, 0.00, 0.088, 0.040, 1.018, 15:02:30.892, 1563390150892
220, -28624.47, -7532.52, -37952.12, 0.00, 0.00, 0.00, 0.00, 0.00, 0.000, 0.000, 0.000, 15:02:30.892, 1563390150892
221, -28489.67, -7418.36, -37823.29, 0.00, 0.00, 0.00, 0.00, 0.00, 0.000, 0.000, 0.000, 15:02:30.892, 1563390150892
222, -28846.11, -7725.34, -38171.82, 0.00, 0.00, 0.00, 0.00, 0.00, 0.000, 0.000, 0.000, 15:02:30.892, 1563390150892
223, -29068.91, -7931.65, -38388.76, 0.00, 0.00, 0.00, 0.00, 0.00, 0.000, 0.000, 0.000, 15:02:30.892, 1563390150892
224, -28739.36, -7624.18, -38055.05, 0.00, 0.00, 0.00, 0.00, 0.00, 0.000, 0.000, 0.000, 15:02:30.892, 1563390150892
225, -28501.83, -7398.23, -37812.60, 0.00, 0.00, 0.00, 0.00, 0.00, 0.000, 0.000, 0.000, 15:02:30.892, 1563390150892
226, -28803.28, -7668.48, -38124.48, 0.00, 0.00, 0.00, 0.00, 0.00, 0.000, 0.000, 0.000, 15:02:30.892, 1563390150892
227, -29060.71, -7911.29, -38383.44, 0.00, 0.00, 0.00, 0.00, 0.00, 0.000, 0.000, 0.000, 15:02:30.892, 1563390150892
228, -28873.63, -7750.49, -38189.65, 0.00, 0.00, 0.00, 0.00, 0.00, 0.000, 0.000, 0.000, 15:02:30.892, 1563390150892
229, -28553.37, -7440.96, -37870.71, 0.00, 0.00, 0.00, 0.00, 0.00, 0.084, 0.038, 1.010, 15:02:30.892, 1563390150892
230, -28754.63, -7605.54, -38065.40, 0.00, 0.00, 0.00, 0.00, 0.00, 0.000, 0.000, 0.000, 15:02:30.892, 1563390150892
231, -29049.49, -7883.57, -38360.96, 0.00, 0.00, 0.00, 0.00, 0.00, 0.000, 0.000, 0.000, 15:02:30.892, 1563390150892
232, -28913.28, -7761.29, -38218.69, 0.00, 0.00, 0.00, 0.00, 0.00, 0.000, 0.000, 0.000, 15:02:30.892, 1563390150892
233, -28542.48, -7402.29, -37840.14, 0.00, 0.00, 0.00, 0.00, 0.00, 0.000, 0.000, 0.000, 15:02:30.892, 1563390150892
234, -28710.68, -7558.96, -38015.69, 0.00, 0.00, 0.00, 0.00, 0.00, 0.000, 0.000, 0.000, 15:02:30.892, 1563390150892
235, -29050.23, -7887.73, -38361.87, 0.00, 0.00, 0.00, 0.00, 0.00, 0.000, 0.000, 0.000, 15:02:30.892, 1563390150892
236, -29010.53, -7862.36, -38314.04, 0.00, 0.00, 0.00, 0.00, 0.00, 0.000, 0.000, 0.000, 15:02:30.892, 1563390150892
237, -28588.84, -7460.88, -37895.55, 0.00, 0.00, 0.00, 0.00, 0.00, 0.000, 0.000, 0.000, 15:02:30.892, 1563390150892
238, -28621.97, -7491.52, -37934.98, 0.00, 0.00, 0.00, 0.00, 0.00, 0.000, 0.000, 0.000, 15:02:30.892, 1563390150892
239, -28962.09, -7825.55, -38278.46, 0.00, 0.00, 0.00, 0.00, 0.00, 0.086, 0.044, 1.022, 15:02:30.892, 1563390150892
240, -28976.04, -7853.89, -38297.97, 0.00, 0.00, 0.00, 0.00, 0.00, 0.000, 0.000, 0.000, 15:02:30.892, 1563390150892
241, -28468.61, -7389.98, -37786.88, 0.00, 0.00, 0.00, 0.00, 0.00, 0.000, 0.000, 0.000, 15:02:30.892, 1563390150892
242, -28231.95, -7160.25, -37553.86, 0.00, 0.00, 0.00, 0.00, 0.00, 0.000, 0.000, 0.000, 15:02:30.892, 1563390150892
243, -28339.28, -7222.63, -37658.35, 0.00, 0.00, 0.00, 0.00, 0.00, 0.000, 0.000, 0.000, 15:02:30.892, 1563390150892
244, -28296.06, -7195.14, -37611.88, 0.00, 0.00, 0.00, 0.00, 0.00, 0.000, 0.000, 0.000, 15:02:30.892, 1563390150892
245, -27901.41, -6837.20, -37218.83, 0.00, 0.00, 0.00, 0.00, 0.00, 0.000, 0.000, 0.000, 15:02:30.892, 1563390150892
246, -27883.71, -6819.20, -37201.26, 0.00, 0.00, 0.00, 0.00, 0.00, 0.000, 0.000, 0.000, 15:02:30.892, 1563390150892
247, -28424.94, -7339.78, -37762.42, 0.00, 0.00, 0.00, 0.00, 0.00, 0.000, 0.000, 0.000, 15:02:30.892, 1563390150892
248, -28898.32, -7808.83, -38229.26, 0.00, 0.00, 0.00, 0.00, 0.00, 0.000, 0.000, 0.000, 15:02:30.892, 1563390150892
249, -28835.22, -7757.28, -38159.66, 0.00, 0.00, 0.00, 0.00, 0.00, 0.088, 0.042, 1.032, 15:02:30.892, 1563390150892
250, -28631.44, -7561.13, -37957.95, 0.00, 0.00, 0.00, 0.00, 0.00, 0.000, 0.000, 0.000, 15:02:30.892, 1563390150892
251, -28893.92, -7803.35, -38213.97, 0.00, 0.00, 0.00, 0.00, 0.00, 0.000, 0.000, 0.000, 15:02:30.892, 1563390150892
252, -29110.62, -7992.47, -38422.67, 0.00, 0.00, 0.00, 0.00, 0.00, 0.000, 0.000, 0.000, 15:02:30.892, 1563390150892
253, -28871.99, -7762.92, -38177.02, 0.00, 0.00, 0.00, 0.00, 0.00, 0.000, 0.000, 0.000, 15:02:30.892, 1563390150892
254, -28517.07, -7414.92, -37816.11, 0.00, 0.00, 0.00, 0.00, 0.00, 0.000, 0.000, 0.000, 15:02:30.893, 1563390150893
255, -28755.99, -7645.93, -38054.61, 0.00, 0.00, 0.00, 0.00, 0.00, 0.000, 0.000, 0.000, 15:02:30.893, 1563390150893
0, -29048.19, -7913.28, -38354.25, 0.00, 0.00, 0.00, 0.00, 0.00, 0.000, 0.000, 0.000, 15:02:30.893, 1563390150893
1, -28934.15, -7803.08, -38250.67, 0.00, 0.00, 0.00, 0.00, 0.00, 0.000, 0.000, 0.000, 15:02:30.893, 1563390150893
2, -28554.53, -7447.29, -37871.14, 0.00, 0.00, 0.00, 0.00, 0.00, 0.000, 0.000, 0.000, 15:02:30.893, 1563390150893
3, -28690.74, -7567.03, -38001.85, 0.00, 0.00, 0.00, 0.00, 0.00, 0.000, 0.000, 0.000, 15:02:30.893, 1563390150893
4, -29031.81, -7887.08, -38339.92, 0.00, 0.00, 0.00, 0.00, 0.00, 0.082, 0.046, 1.026, 15:02:30.893, 1563390150893
5, -29004.99, -7871.43, -38308.21, 0.00, 0.00, 0.00, 0.00, 0.00, 0.000, 0.000, 0.000, 15:02:30.893, 1563390150893
6, -28584.17, -7484.37, -37891.48, 0.00, 0.00, 0.00, 0.00, 0.00, 0.000, 0.000, 0.000, 15:02:30.893, 1563390150893
7, -28615.73, -7524.07, -37926.82, 0.00, 0.00, 0.00, 0.00, 0.00, 0.000, 0.000, 0.000, 15:02:30.893, 1563390150893
8, -28955.23, -7854.34, -38277.81, 0.00, 0.00, 0.00, 0.00, 0.00, 0.000, 0.000, 0.000, 15:02:30.893, 1563390150893
9, -29016.18, -7930.71, -38339.43, 0.00, 0.00, 0.00, 0.00, 0.00, 0.000, 0.000, 0.000, 15:02:30.893, 1563390150893
10, -28606.97, -7543.91, -37930.71, 0.00, 0.00, 0.00, 0.00, 0.00, 0.000, 0.000, 0.000, 15:02:30.893, 1563390150893
11, -28559.58, -7496.75, -37887.79, 0.00, 0.00, 0.00, 0.00, 0.00, 0.000, 0.000, 0.000, 15:02:30.893, 1563390150893
12, -28888.58, -7807.49, -38201.07, 0.00, 0.00, 0.00, 0.00, 0.00, 0.000, 0.000, 0.000, 15:02:30.893, 1563390150893
13, -29034.07, -7946.67, -38347.25, 0.00, 0.00, 0.00, 0.00, 0.00, 0.000, 0.000, 0.000, 15:02:30.893, 1563390150893
14, -28673.96, -7601.14, -37994.48, 0.00, 0.00, 0.00, 0.00, 0.00, 0.090, 0.050, 1.030, 15:02:30.893, 1563390150893
15, -28512.91, -7441.95, -37832.05, 0.00, 0.00, 0.00, 0.00, 0.00, 0.000, 0.000, 0.000, 15:02:30.893, 1563390150893
16, -28824.07, -7737.59, -38132.66, 0.00, 0.00, 0.00, 0.00, 0.00, 0.000, 0.000, 0.000, 15:02:30.893, 1563390150893
17, -29053.40, -7949.20, -38359.14, 0.00, 0.00, 0.00, 0.00, 0.00, 0.000, 0.000, 0.000, 15:02:30.893, 1563390150893
18, -28749.53, -7642.64, -38059.19, 0.00, 0.00, 0.00, 0.00, 0.00, 0.000, 0.000, 0.000, 15:02:30.893, 1563390150893
19, -28488.01, -7390.18, -37795.91, 0.00, 0.00, 0.00, 0.00, 0.00, 0.000, 0.000, 0.000, 15:02:30.893, 1563390150893
20, -28754.51, -7649.86, -38060.95, 0.00, 0.00, 0.00, 0.00, 0.00, 0.000, 0.000, 0.000, 15:02:30.893, 1563390150893
21, -29007.22, -7883.57, -38312.01, 0.00, 0.00, 0.00, 0.00, 0.00, 0.000, 0.000, 0.000, 15:02:30.893, 1563390150893
22, -28799.28, -7680.82, -38109.01, 0.00, 0.00, 0.00, 0.00, 0.00, 0.000, 0.000, 0.000, 15:02:30.893, 1563390150893
23, -28466.04, -7362.46, -37774.80, 0.00, 0.00, 0.00, 0.00, 0.00, 0.000, 0.000, 0.000, 15:02:30.893, 1563390150893
24, -28683.75, -7561.55, -37989.98, 0.00, 0.00, 0.00, 0.00, 0.00, 0.088, 0.048, 1.028, 15:02:30.893, 1563390150893
25, -28967.79, -7841.86, -38267.88, 0.00, 0.00, 0.00, 0.00, 0.00, 0.000, 0.000, 0.000, 15:02:30.893, 1563390150893
26, -28818.28, -7710.81, -38124.52, 0.00, 0.00, 0.00, 0.00, 0.00, 0.000, 0.000, 0.000, 15:02:30.893, 1563390150893
27, -28417.43, -7308.69, -37732.49, 0.00, 0.00, 0.00, 0.00, 0.00, 0.000, 0.000, 0.000, 15:02:30.893, 1563390150893
28, -28543.98, -7407.84, -37856.48, 0.00, 0.00, 0.00, 0.00, 0.00, 0.000, 0.000, 0.000, 15:02:30.893, 1563390150893
29, -28875.19, -7733.46, -38182.63, 0.00, 0.00, 0.00, 0.00, 0.00, 0.000, 0.000, 0.000, 15:02:30.893, 1563390150893
30, -28850.38, -7730.35, -38159.84, 0.00, 0.00, 0.00, 0.00, 0.00, 0.000, 0.000, 0.000, 15:02:30.893, 1563390150893
31, -28422.70, -7325.99, -37726.48, 0.00, 0.00, 0.00, 0.00, 0.00, 0.000, 0.000, 0.000, 15:02:30.894, 1563390150894
32, -28468.21, -7368.86, -37776.61, 0.00, 0.00, 0.00, 0.00, 0.00, 0.000, 0.000, 0.000, 15:02:30.894, 1563390150894
33, -28784.24, -7685.24, -38098.52, 0.00, 0.00, 0.00, 0.00, 0.00, 0.000, 0.000, 0.000, 15:02:30.894, 1563390150894
34, -28836.01, -7759.48, -38146.29, 0.00, 0.00, 0.00, 0.00, 0.00, 0.088, 0.046, 1.026, 15:02:30.894, 1563390150894
35, -28455.63, -7405.00, -37774.54, 0.00, 0.00, 0.00, 0.00, 0.00, 0.000, 0.000, 0.000, 15:02:30.894, 1563390150894
36, -28410.92, -7361.84, -37731.66, 0.00, 0.00, 0.00, 0.00, 0.00, 0.000, 0.000, 0.000, 15:02:30.894, 1563390150894
37, -28741.17, -7682.12, -38059.88, 0.00, 0.00, 0.00, 0.00, 0.00, 0.000, 0.000, 0.000, 15:02:30.894, 1563390150894
38, -28859.10, -7784.35, -38168.71, 0.00, 0.00, 0.00, 0.00, 0.00, 0.000, 0.000, 0.000, 15:02:30.894, 1563390150894
39, -28509.25, -7443.87, -37811.24, 0.00, 0.00, 0.00, 0.00, 0.00, 0.000, 0.000, 0.000, 15:02:30.894, 1563390150894
40, -28343.55, -7283.02, -37657.35, 0.00, 0.00, 0.00, 0.00, 0.00, 0.000, 0.000, 0.000, 15:02:30.894, 1563390150894
41, -28679.39, -7603.84, -37984.87, 0.00, 0.00, 0.00, 0.00, 0.00, 0.000, 0.000, 0.000, 15:02:30.894, 1563390150894
42, -28901.43, -7827.94, -38200.29, 0.00, 0.00, 0.00, 0.00, 0.00, 0.000, 0.000, 0.000, 15:02:30.894, 1563390150894
43, -28627.24, -7575.86, -37934.64, 0.00, 0.00, 0.00, 0.00, 0.00, 0.000, 0.000, 0.000, 15:02:30.894, 1563390150894
44, -28377.08, -7292.28, -37690.98, 0.00, 0.00, 0.00, 0.00, 0.00, 0.086, 0.044, 1.026, 15:02:30.894, 1563390150894
45, -28655.96, -7540.41, -37977.96, 0.00, 0.00, 0.00, 0.00, 0.00, 0.000, 0.000, 0.000, 15:02:30.894, 1563390150894
46, -28946.22, -7819.67, -38263.37, 0.00, 0.00, 0.00, 0.00, 0.00, 0.000, 0.000, 0.000, 15:02:30.894, 1563390150894
47, -28735.29, -7625.43, -38048.97, 0.00, 0.00, 0.00, 0.00, 0.00, 0.000, 0.000, 0.000, 15:02:30.894, 1563390150894
48, -28420.49, -7328.67, -37738.44, 0.00, 0.00, 0.00, 0.00, 0.00, 0.000, 0.000, 0.000, 15:02:30.894, 1563390150894
49, -28682.27, -7582.45, -37996.42, 0.00, 0.00, 0.00, 0.00, 0.00, 0.000, 0.000, 0.000, 15:02:30.894, 1563390150894
50, -29010.48, -7902.53, -38320.43, 0.00, 0.00, 0.00, 0.00, 0.00, 0.000, 0.000, 0.000, 15:02:30.894, 1563390150894
51, -28883.62, -7784.87, -38197.92, 0.00, 0.00, 0.00, 0.00, 0.00, 0.000, 0.000, 0.000, 15:02:30.894, 1563390150894
52, -28514.12, -7433.23, -37833.72, 0.00, 0.00, 0.00, 0.00, 0.00, 0.000, 0.000, 0.000, 15:02:30.894, 1563390150894
53, -28665.96, -7572.15, -37981.04, 0.00, 0.00, 0.00, 0.00, 0.00, 0.000, 0.000, 0.000, 15:02:30.894, 1563390150894
54, -29020.07, -7908.90, -38341.49, 0.00, 0.00, 0.00, 0.00, 0.00, 0.090, 0.038, 1.026, 15:02:30.894, 1563390150894
55, -28973.94, -7874.03, -38281.38, 0.00, 0.00, 0.00, 0.00, 0.00, 0.000, 0.000, 0.000, 15:02:30.894, 1563390150894
56, -28583.83, -7520.94, -37900.58, 0.00, 0.00, 0.00, 0.00, 0.00, 0.000, 0.000, 0.000, 15:02:30.894, 1563390150894
57, -28638.02, -7568.21, -37960.17, 0.00, 0.00, 0.00, 0.00, 0.00, 0.000, 0.000, 0.000, 15:02:30.894, 1563390150894
58, -28975.24, -7889.36, -38295.60, 0.00, 0.00, 0.00, 0.00, 0.00, 0.000, 0.000, 0.000, 15:02:30.894, 1563390150894
59, -29028.46, -7964.93, -38353.60, 0.00, 0.00, 0.00, 0.00, 0.00, 0.000, 0.000, 0.000, 15:02:30.894, 1563390150894
60, -28622.73, -7574.92, -37947.88, 0.00, 0.00, 0.00, 0.00, 0.00, 0.000, 0.000, 0.000, 15:02:30.894, 1563390150894
61, -28586.88, -7531.13, -37906.12, 0.00, 0.00, 0.00, 0.00, 0.00, 0.000, 0.000, 0.000, 15:02:30.894, 1563390150894
62, -28950.96, -7869.56, -38262.90, 0.00, 0.00, 0.00, 0.00, 0.00, 0.000, 0.000, 0.000, 15:02:30.894, 1563390150894
63, -29060.53, -7975.08, -38365.18, 0.00, 0.00, 0.00, 0.00, 0.00, 0.000, 0.000, 0.000, 15:02:30.894, 1563390150894
64, -28699.33, -7635.94, -37986.95, 0.00, 0.00, 0.00, 0.00, 0.00, 0.000, 0.000, 0.000, 15:02:30.894, 1563390150894
65, -28562.35, -7489.51, -37856.88, 0.00, 0.00, 0.00, 0.00, 0.00, 0.092, 0.042, 1.022, 15:02:30.894, 1563390150894
66, -28913.39, -7817.61, -38205.07, 0.00, 0.00, 0.00, 0.00, 0.00, 0.000, 0.000, 0.000, 15:02:30.895, 1563390150895
67, -29115.96, -8008.38, -38398.42, 0.00, 0.00, 0.00, 0.00, 0.00, 0.000, 0.000, 0.000, 15:02:30.895, 1563390150895
68, -28813.45, -7723.65, -38105.10, 0.00, 0.00, 0.00, 0.00, 0.00, 0.000, 0.000, 0.000, 15:02:30.895, 1563390150895
69, -28541.23, -7447.31, -37839.20, 0.00, 0.00, 0.00, 0.00, 0.00, 0.000, 0.000, 0.000, 15:02:30.895, 1563390150895
70, -28828.09, -7711.04, -38132.93, 0.00, 0.00, 0.00, 0.00, 0.00, 0.000, 0.000, 0.000, 15:02:30.895, 1563390150895
71, -29097.75, -7970.61, -38399.16, 0.00, 0.00, 0.00, 0.00, 0.00, 0.000, 0.000, 0.000, 15:02:30.895, 1563390150895
72, -28869.85, -7756.28, -38159.46, 0.00, 0.00, 0.00, 0.00, 0.00, 0.000, 0.000, 0.000, 15:02:30.895, 1563390150895
73, -28518.72, -7414.59, -37809.54, 0.00, 0.00, 0.00, 0.00, 0.00, 0.000, 0.000, 0.000, 15:02:30.895, 1563390150895
74, -28783.93, -7664.46, -38080.09, 0.00, 0.00, 0.00, 0.00, 0.00, 0.000, 0.000, 0.000, 15:02:30.895, 1563390150895
75, -29090.55, -7961.13, -38382.48, 0.00, 0.00, 0.00, 0.00, 0.00, 0.090, 0.040, 1.022, 15:02:31.373, 1563390151373
76, -28948.73, -7835.05, -38234.56, 0.00, 0.00, 0.00, 0.00, 0.00, 0.000, 0.000, 0.000, 15:02:31.373, 1563390151373
77, -28564.30, -7474.58, -37852.05, 0.00, 0.00, 0.00, 0.00, 0.00, 0.000, 0.000, 0.000, 15:02:31.373, 1563390151373
78, -28708.96, -7624.31, -38019.33, 0.00, 0.00, 0.00, 0.00, 0.00, 0.000, 0.000, 0.000, 15:02:31.373, 1563390151373
79, -29039.30, -7944.39, -38338.71, 0.00, 0.00, 0.00, 0.00, 0.00, 0.000, 0.000, 0.000, 15:02:31.373, 1563390151373
80, -28992.49, -7915.40, -38282.34, 0.00, 0.00, 0.00, 0.00, 0.00, 0.000, 0.000, 0.000, 15:02:31.374, 1563390151374
81, -28573.69, -7530.12, -37881.02, 0.00, 0.00, 0.00, 0.00, 0.00, 0.000, 0.000, 0.000, 15:02:31.374, 1563390151374
82, -28626.50, -7558.26, -37946.36, 0.00, 0.00, 0.00, 0.00, 0.00, 0.000, 0.000, 0.000, 15:02:31.374, 1563390151374
83, -28976.94, -7905.34, -38286.35, 0.00, 0.00, 0.00, 0.00, 0.00, 0.000, 0.000, 0.000, 15:02:31.374, 1563390151374
84, -29031.88, -7975.68, -38345.20, 0.00, 0.00, 0.00, 0.00, 0.00, 0.000, 0.000, 0.000, 15:02:31.374, 1563390151374
85, -28626.82, -7554.11, -37935.74, 0.00, 0.00, 0.00, 0.00, 0.00, 0.082, 0.040, 1.020, 15:02:31.374, 1563390151374
86, -28595.23, -7514.81, -37902.12, 0.00, 0.00, 0.00, 0.00, 0.00, 0.000, 0.000, 0.000, 15:02:31.374, 1563390151374
87, -28948.15, -7857.44, -38252.35, 0.00, 0.00, 0.00, 0.00, 0.00, 0.000, 0.000, 0.000, 15:02:31.374, 1563390151374
88, -29065.07, -7962.81, -38375.24, 0.00, 0.00, 0.00, 0.00, 0.00, 0.000, 0.000, 0.000, 15:02:31.374, 1563390151374
89, -28684.42, -7593.87, -37985.54, 0.00, 0.00, 0.00, 0.00, 0.00, 0.000, 0.000, 0.000, 15:02:31.374, 1563390151374
90, -28538.66, -7453.43, -37847.47, 0.00, 0.00, 0.00, 0.00, 0.00, 0.000, 0.000, 0.000, 15:02:31.374, 1563390151374
91, -28878.32, -7777.92, -38189.68, 0.00, 0.00, 0.00, 0.00, 0.00, 0.000, 0.000, 0.000, 15:02:31.374, 1563390151374
92, -29080.60, -7972.80, -38381.68, 0.00, 0.00, 0.00, 0.00, 0.00, 0.000, 0.000, 0.000, 15:02:31.374, 1563390151374
93, -28786.30, -7694.10, -38079.35, 0.00, 0.00, 0.00, 0.00, 0.00, 0.000, 0.000, 0.000, 15:02:31.374, 1563390151374
94, -28542.82, -7456.01, -37834.48, 0.00, 0.00, 0.00, 0.00, 0.00, 0.000, 0.000, 0.000, 15:02:31.374, 1563390151374
95, -28835.85, -7726.71, -38129.10, 0.00, 0.00, 0.00, 0.00, 0.00, 0.088, 0.038, 1.016, 15:02:31.374, 1563390151374
96, -29109.44, -7994.64, -38399.51, 0.00, 0.00, 0.00, 0.00, 0.00, 0.000, 0.000, 0.000, 15:02:31.374, 1563390151374
97, -28893.03, -7802.14, -38194.93, 0.00, 0.00, 0.00, 0.00, 0.00, 0.000, 0.000, 0.000, 15:02:31.374, 1563390151374
98, -28564.14, -7488.97, -37875.10, 0.00, 0.00, 0.00, 0.00, 0.00, 0.000, 0.000, 0.000, 15:02:31.374, 1563390151374
99, -28761.11, -7667.03, -38071.81, 0.00, 0.00, 0.00, 0.00, 0.00, 0.000, 0.000, 0.000, 15:02:31.374, 1563390151374
100, -29052.84, -7954.67, -38359.04, 0.00, 0.00, 0.00, 0.00, 0.00, 0.000, 0.000, 0.000, 15:02:31.374, 1563390151374
101, -28929.48, -7857.35, -38227.98, 0.00, 0.00, 0.00, 0.00, 0.00, 0.000, 0.000, 0.000, 15:02:31.374, 1563390151374
102, -28534.06, -7470.29, -37831.27, 0.00, 0.00, 0.00, 0.00, 0.00, 0.000, 0.000, 0.000, 15:02:31.374, 1563390151374
103, -28672.48, -7589.22, -37976.75, 0.00, 0.00, 0.00, 0.00, 0.00, 0.000, 0.000, 0.000, 15:02:31.374, 1563390151374
104, -28997.70, -7907.15, -38301.32, 0.00, 0.00, 0.00, 0.00, 0.00, 0.000, 0.000, 0.000, 15:02:31.374, 1563390151374
105, -28944.61, -7869.74, -38243.23, 0.00, 0.00, 0.00, 0.00, 0.00, 0.084, 0.036, 1.014, 15:02:31.374, 1563390151374
106, -28578.09, -7536.49, -37876.68, 0.00, 0.00, 0.00, 0.00, 0.00, 0.000, 0.000, 0.000, 15:02:31.374, 1563390151374
107, -28633.23, -7595.44, -37937.01, 0.00, 0.00, 0.00, 0.00, 0.00, 0.000, 0.000, 0.000, 15:02:31.374, 1563390151374
108, -28954.63, -7879.91, -38250.25, 0.00, 0.00, 0.00, 0.00, 0.00, 0.000, 0.000, 0.000, 15:02:31.374, 1563390151374
109, -28976.17, -7896.69, -38265.61, 0.00, 0.00, 0.00, 0.00, 0.00, 0.000, 0.000, 0.000, 15:02:31.374, 1563390151374
110, -28568.75, -7514.34, -37879.25, 0.00, 0.00, 0.00, 0.00, 0.00, 0.000, 0.000, 0.000, 15:02:31.374, 1563390151374
111, -28540.27, -7479.54, -37848.01, 0.00, 0.00, 0.00, 0.00, 0.00, 0.000, 0.000, 0.000, 15:02:31.374, 1563390151374
112, -28880.13, -7803.08, -38181.23, 0.00, 0.00, 0.00, 0.00, 0.00, 0.000, 0.000, 0.000, 15:02:31.374, 1563390151374
113, -29022.82, -7947.97, -38312.30, 0.00, 0.00, 0.00, 0.00, 0.00, 0.000, 0.000, 0.000, 15:02:31.374, 1563390151374
114, -28665.91, -7605.83, -37951.56, 0.00, 0.00, 0.00, 0.00, 0.00, 0.000, 0.000, 0.000, 15:02:31.374, 1563390151374
115, -28525.83, -7451.38, -37817.90, 0.00, 0.00, 0.00, 0.00, 0.00, 0.000, 0.000, 0.000, 15:02:31.374, 1563390151374
116, -28844.79, -7743.00, -38144.41, 0.00, 0.00, 0.00, 0.00, 0.00, 0.088, 0.040, 1.020, 15:02:31.374, 1563390151374
117, -29058.09, -7957.94, -38346.90, 0.00, 0.00, 0.00, 0.00, 0.00, 0.000, 0.000, 0.000, 15:02:31.374, 1563390151374
118, -28776.91, -7688.46, -38060.13, 0.00, 0.00, 0.00, 0.00, 0.00, 0.000, 0.000, 0.000, 15:02:31.374, 1563390151374
119, -28551.92, -7467.40, -37843.60, 0.00, 0.00, 0.00, 0.00, 0.00, 0.000, 0.000, 0.000, 15:02:31.375, 1563390151375
120, -28855.59, -7758.69, -38147.90, 0.00, 0.00, 0.00, 0.00, 0.00, 0.000, 0.000, 0.000, 15:02:31.375, 1563390151375
121, -29113.24, -8028.12, -38397.03, 0.00, 0.00, 0.00, 0.00, 0.00, 0.000, 0.000, 0.000, 15:02:31.375, 1563390151375
122, -28887.26, -7825.28, -38180.02, 0.00, 0.00, 0.00, 0.00, 0.00, 0.000, 0.000, 0.000, 15:02:31.375, 1563390151375
123, -28554.06, -7489.20, -37843.31, 0.00, 0.00, 0.00, 0.00, 0.00, 0.000, 0.000, 0.000, 15:02:31.375, 1563390151375
124, -28777.02, -7702.72, -38073.42, 0.00, 0.00, 0.00, 0.00, 0.00, 0.000, 0.000, 0.000, 15:02:31.375, 1563390151375
125, -29081.83, -7990.44, -38388.65, 0.00, 0.00, 0.00, 0.00, 0.00, 0.000, 0.000, 0.000, 15:02:31.375, 1563390151375
126, -28942.27, -7855.61, -38247.77, 0.00, 0.00, 0.00, 0.00, 0.00, 0.092, 0.038, 1.022, 15:02:31.375, 1563390151375
127, -28549.79, -7487.54, -37853.77, 0.00, 0.00, 0.00, 0.00, 0.00, 0.000, 0.000, 0.000, 15:02:31.375, 1563390151375
128, -28688.78, -7616.78, -38001.05, 0.00, 0.00, 0.00, 0.00, 0.00, 0.000, 0.000, 0.000, 15:02:31.375, 1563390151375
129, -29023.87, -7944.41, -38332.17, 0.00, 0.00, 0.00, 0.00, 0.00, 0.000, 0.000, 0.000, 15:02:31.375, 1563390151375
130, -29025.04, -7958.27, -38328.52, 0.00, 0.00, 0.00, 0.00, 0.00, 0.000, 0.000, 0.000, 15:02:31.375, 1563390151375
131, -28630.82, -7588.66, -37939.09, 0.00, 0.00, 0.00, 0.00, 0.00, 0.000, 0.000, 0.000, 15:02:31.375, 1563390151375
132, -28674.34, -7627.91, -37965.53, 0.00, 0.00, 0.00, 0.00, 0.00, 0.000, 0.000, 0.000, 15:02:31.375, 1563390151375
133, -29011.54, -7943.72, -38303.20, 0.00, 0.00, 0.00, 0.00, 0.00, 0.000, 0.000, 0.000, 15:02:31.375, 1563390151375
134, -29080.04, -8014.69, -38384.40, 0.00, 0.00, 0.00, 0.00, 0.00, 0.000, 0.000, 0.000, 15:02:31.375, 1563390151375
135, -28690.79, -7646.91, -37996.22, 0.00, 0.00, 0.00, 0.00, 0.00, 0.000, 0.000, 0.000, 15:02:31.375, 1563390151375
136, -28614.43, -7559.87, -37919.29, 0.00, 0.00, 0.00, 0.00, 0.00, 0.088, 0.042, 1.022, 15:02:31.375, 1563390151375
137, -28887.26, -7803.11, -38176.58, 0.00, 0.00, 0.00, 0.00, 0.00, 0.000, 0.000, 0.000, 15:02:31.375, 1563390151375
138, -28890.79, -7798.46, -38164.06, 0.00, 0.00, 0.00, 0.00, 0.00, 0.000, 0.000, 0.000, 15:02:31.376, 1563390151376
139, -28380.21, -7320.02, -37652.88, 0.00, 0.00, 0.00, 0.00, 0.00, 0.000, 0.000, 0.000, 15:02:31.376, 1563390151376
140, -28037.09, -6956.51, -37324.35, 0.00, 0.00, 0.00, 0.00, 0.00, 0.000, 0.000, 0.000, 15:02:31.376, 1563390151376
141, -28174.95, -7070.24, -37462.02, 0.00, 0.00, 0.00, 0.00, 0.00, 0.000, 0.000, 0.000, 15:02:31.376, 1563390151376
142, -28280.12, -7174.55, -37571.11, 0.00, 0.00, 0.00, 0.00, 0.00, 0.000, 0.000, 0.000, 15:02:31.376, 1563390151376
143, -28067.96, -6981.37, -37354.17, 0.00, 0.00, 0.00, 0.00, 0.00, 0.000, 0.000, 0.000, 15:02:31.376, 1563390151376
144, -28004.61, -6917.69, -37295.05, 0.00, 0.00, 0.00, 0.00, 0.00, 0.000, 0.000, 0.000, 15:02:31.376, 1563390151376
145, -28570.69, -7475.07, -37865.75, 0.00, 0.00, 0.00, 0.00, 0.00, 0.000, 0.000, 0.000, 15:02:31.376, 1563390151376
146, -29077.70, -7981.00, -38372.16, 0.00, 0.00, 0.00, 0.00, 0.00, 0.086, 0.046, 1.032, 15:02:31.376, 1563390151376
147, -28917.12, -7839.52, -38210.39, 0.00, 0.00, 0.00, 0.00, 0.00, 0.000, 0.000, 0.000, 15:02:31.376, 1563390151376
148, -28583.46, -7529.94, -37882.83, 0.00, 0.00, 0.00, 0.00, 0.00, 0.000, 0.000, 0.000, 15:02:31.376, 1563390151376
149, -28765.11, -7707.06, -38062.61, 0.00, 0.00, 0.00, 0.00, 0.00, 0.000, 0.000, 0.000, 15:02:31.376, 1563390151376
150, -29041.87, -7981.38, -38345.76, 0.00, 0.00, 0.00, 0.00, 0.00, 0.000, 0.000, 0.000, 15:02:31.376, 1563390151376
151, -28906.88, -7868.02, -38210.42, 0.00, 0.00, 0.00, 0.00, 0.00, 0.000, 0.000, 0.000, 15:02:31.376, 1563390151376
152, -28518.61, -7501.45, -37835.33, 0.00, 0.00, 0.00, 0.00, 0.00, 0.000, 0.000, 0.000, 15:02:31.376, 1563390151376
153, -28698.77, -7670.05, -38007.00, 0.00, 0.00, 0.00, 0.00, 0.00, 0.000, 0.000, 0.000, 15:02:31.376, 1563390151376
154, -29028.99, -7988.33, -38331.12, 0.00, 0.00, 0.00, 0.00, 0.00, 0.000, 0.000, 0.000, 15:02:31.376, 1563390151376
155, -28977.05, -7946.85, -38282.43, 0.00, 0.00, 0.00, 0.00, 0.00, 0.000, 0.000, 0.000, 15:02:31.376, 1563390151376
156, -28561.75, -7545.81, -37865.62, 0.00, 0.00, 0.00, 0.00, 0.00, 0.090, 0.046, 1.028, 15:02:31.376, 1563390151376
157, -28638.28, -7609.07, -37947.88, 0.00, 0.00, 0.00, 0.00, 0.00, 0.000, 0.000, 0.000, 15:02:31.376, 1563390151376
158, -28976.94, -7923.04, -38278.57, 0.00, 0.00, 0.00, 0.00, 0.00, 0.000, 0.000, 0.000, 15:02:31.376, 1563390151376
159, -29003.49, -7943.63, -38302.28, 0.00, 0.00, 0.00, 0.00, 0.00, 0.000, 0.000, 0.000, 15:02:31.376, 1563390151376
160, -28603.77, -7565.89, -37908.87, 0.00, 0.00, 0.00, 0.00, 0.00, 0.000, 0.000, 0.000, 15:02:31.376, 1563390151376
161, -28566.29, -7526.17, -37871.72, 0.00, 0.00, 0.00, 0.00, 0.00, 0.000, 0.000, 0.000, 15:02:31.376, 1563390151376
162, -28914.84, -7842.09, -38204.81, 0.00, 0.00, 0.00, 0.00, 0.00, 0.000, 0.000, 0.000, 15:02:31.376, 1563390151376
163, -29041.75, -7955.90, -38311.05, 0.00, 0.00, 0.00, 0.00, 0.00, 0.000, 0.000, 0.000, 15:02:31.376, 1563390151376
164, -28659.90, -7594.72, -37924.70, 0.00, 0.00, 0.00, 0.00, 0.00, 0.000, 0.000, 0.000, 15:02:31.376, 1563390151376
165, -28502.32, -7425.52, -37793.22, 0.00, 0.00, 0.00, 0.00, 0.00, 0.000, 0.000, 0.000, 15:02:31.376, 1563390151376
166, -28861.42, -7775.77, -38157.00, 0.00, 0.00, 0.00, 0.00, 0.00, 0.000, 0.000, 0.000, 15:02:31.376, 1563390151376
167, -29044.37, -7946.20, -38338.38, 0.00, 0.00, 0.00, 0.00, 0.00, 0.090, 0.044, 1.024, 15:02:31.376, 1563390151376
168, -28730.73, -7645.88, -38017.30, 0.00, 0.00, 0.00, 0.00, 0.00, 0.000, 0.000, 0.000, 15:02:31.376, 1563390151376
169, -28464.37, -7399.01, -37765.37, 0.00, 0.00, 0.00, 0.00, 0.00, 0.000, 0.000, 0.000, 15:02:31.376, 1563390151376
170, -28749.21, -7673.91, -38055.72, 0.00, 0.00, 0.00, 0.00, 0.00, 0.000, 0.000, 0.000, 15:02:31.376, 1563390151376
171, -29001.59, -7925.86, -38300.47, 0.00, 0.00, 0.00, 0.00, 0.00, 0.000, 0.000, 0.000, 15:02:31.376, 1563390151376
172, -28776.89, -7725.90, -38073.74, 0.00, 0.00, 0.00, 0.00, 0.00, 0.000, 0.000, 0.000, 15:02:31.376, 1563390151376
173, -28441.65, -7412.80, -37742.02, 0.00, 0.00, 0.00, 0.00, 0.00, 0.000, 0.000, 0.000, 15:02:31.376, 1563390151376
174, -28656.25, -7620.18, -37955.70, 0.00, 0.00, 0.00, 0.00, 0.00, 0.000, 0.000, 0.000, 15:02:31.377, 1563390151377
175, -28966.34, -7931.49, -38265.22, 0.00, 0.00, 0.00, 0.00, 0.00, 0.000, 0.000, 0.000, 15:02:31.377, 1563390151377
176, -28833.53, -7825.01, -38132.97, 0.00, 0.00, 0.00, 0.00, 0.00, 0.000, 0.000, 0.000, 15:02:31.377, 1563390151377
177, -28429.90, -7414.39, -37735.58, 0.00, 0.00, 0.00, 0.00, 0.00, 0.090, 0.048, 1.026, 15:02:31.377, 1563390151377
178, -28563.12, -7526.82, -37870.02, 0.00, 0.00, 0.00, 0.00, 0.00, 0.000, 0.000, 0.000, 15:02:31.377, 1563390151377
179, -28881.74, -7834.87, -38179.26, 0.00, 0.00, 0.00, 0.00, 0.00, 0.000, 0.000, 0.000, 15:02:31.377, 1563390151377
180, -28831.92, -7795.30, -38132.61, 0.00, 0.00, 0.00, 0.00, 0.00, 0.000, 0.000, 0.000, 15:02:31.377, 1563390151377
181, -28426.88, -7406.12, -37719.11, 0.00, 0.00, 0.00, 0.00, 0.00, 0.000, 0.000, 0.000, 15:02:31.377, 1563390151377
182, -28476.93, -7436.25, -37776.53, 0.00, 0.00, 0.00, 0.00, 0.00, 0.000, 0.000, 0.000, 15:02:31.377, 1563390151377
183, -28814.93, -7756.55, -38112.20, 0.00, 0.00, 0.00, 0.00, 0.00, 0.000, 0.000, 0.000, 15:02:31.377, 1563390151377
184, -28855.27, -7790.83, -38141.13, 0.00, 0.00, 0.00, 0.00, 0.00, 0.000, 0.000, 0.000, 15:02:31.377, 1563390151377
185, -28433.90, -7381.71, -37718.72, 0.00, 0.00, 0.00, 0.00, 0.00, 0.000, 0.000, 0.000, 15:02:31.377, 1563390151377
186, -28366.82, -7307.14, -37647.96, 0.00, 0.00, 0.00, 0.00, 0.00, 0.000, 0.000, 0.000, 15:02:31.377, 1563390151377
187, -28718.04, -7637.28, -37991.17, 0.00, 0.00, 0.00, 0.00, 0.00, 0.088, 0.044, 1.026, 15:02:31.377, 1563390151377
188, -28838.64, -7763.19, -38118.35, 0.00, 0.00, 0.00, 0.00, 0.00, 0.000, 0.000, 0.000, 15:02:31.377, 1563390151377
189, -28467.25, -7405.15, -37747.20, 0.00, 0.00, 0.00, 0.00, 0.00, 0.000, 0.000, 0.000, 15:02:31.377, 1563390151377
190, -28321.36, -7244.67, -37595.79, 0.00, 0.00, 0.00, 0.00, 0.00, 0.000, 0.000, 0.000, 15:02:31.377, 1563390151377
191, -28632.20, -7548.07, -37905.63, 0.00, 0.00, 0.00, 0.00, 0.00, 0.000, 0.000, 0.000, 15:02:31.377, 1563390151377
192, -28840.21, -7774.25, -38121.75, 0.00, 0.00, 0.00, 0.00, 0.00, 0.000, 0.000, 0.000, 15:02:31.377, 1563390151377
193, -28548.18, -7504.53, -37840.88, 0.00, 0.00, 0.00, 0.00, 0.00, 0.000, 0.000, 0.000, 15:02:31.377, 1563390151377
194, -28315.32, -7277.53, -37607.95, 0.00, 0.00, 0.00, 0.00, 0.00, 0.000, 0.000, 0.000, 15:02:31.377, 1563390151377
195, -28606.61, -7551.38, -37903.37, 0.00, 0.00, 0.00, 0.00, 0.00, 0.000, 0.000, 0.000, 15:02:31.377, 1563390151377
196, -28868.19, -7804.74, -38162.18, 0.00, 0.00, 0.00, 0.00, 0.00, 0.000, 0.000, 0.000, 15:02:31.854, 1563390151854
197, -28646.24, -7614.05, -37935.98, 0.00, 0.00, 0.00, 0.00, 0.00, 0.086, 0.042, 1.030, 15:02:31.854, 1563390151854
198, -28351.87, -7339.73, -37641.83, 0.00, 0.00, 0.00, 0.00, 0.00, 0.000, 0.000, 0.000, 15:02:31.854, 1563390151854
199, -28645.35, -7626.59, -37942.11, 0.00, 0.00, 0.00, 0.00, 0.00, 0.000, 0.000, 0.000, 15:02:31.854, 1563390151854
200, -28962.45, -7930.02, -38254.38, 0.00, 0.00, 0.00, 0.00, 0.00, 0.000, 0.000, 0.000, 15:02:31.854, 1563390151854
201, -28815.96, -7786.41, -38109.86, 0.00, 0.00, 0.00, 0.00, 0.00, 0.000, 0.000, 0.000, 15:02:31.854, 1563390151854
202, -28459.42, -7438.26, -37752.63, 0.00, 0.00, 0.00, 0.00, 0.00, 0.000, 0.000, 0.000, 15:02:31.854, 1563390151854
203, -28615.64, -7588.17, -37919.75, 0.00, 0.00, 0.00, 0.00, 0.00, 0.000, 0.000, 0.000, 15:02:31.854, 1563390151854
204, -28959.23, -7916.36, -38261.80, 0.00, 0.00, 0.00, 0.00, 0.00, 0.000, 0.000, 0.000, 15:02:31.854, 1563390151854
205, -28938.96, -7897.88, -38224.92, 0.00, 0.00, 0.00, 0.00, 0.00, 0.000, 0.000, 0.000, 15:02:31.854, 1563390151854
206, -28553.41, -7529.72, -37842.44, 0.00, 0.00, 0.00, 0.00, 0.00, 0.000, 0.000, 0.000, 15:02:31.854, 1563390151854
207, -28637.03, -7609.03, -37924.02, 0.00, 0.00, 0.00, 0.00, 0.00, 0.090, 0.046, 1.034, 15:02:31.854, 1563390151854
208, -28995.73, -7940.28, -38277.83, 0.00, 0.00, 0.00, 0.00, 0.00, 0.000, 0.000, 0.000, 15:02:31.855, 1563390151855
209, -29049.80, -7979.15, -38327.83, 0.00, 0.00, 0.00, 0.00, 0.00, 0.000, 0.000, 0.000, 15:02:31.855, 1563390151855
210, -28638.98, -7592.42, -37915.51, 0.00, 0.00, 0.00, 0.00, 0.00, 0.000, 0.000, 0.000, 15:02:31.855, 1563390151855
211, -28606.74, -7557.37, -37874.96, 0.00, 0.00, 0.00, 0.00, 0.00, 0.000, 0.000, 0.000, 15:02:31.855, 1563390151855
212, -28945.22, -7869.47, -38221.73, 0.00, 0.00, 0.00, 0.00, 0.00, 0.000, 0.000, 0.000, 15:02:31.855, 1563390151855
213, -29089.14, -8007.20, -38365.02, 0.00, 0.00, 0.00, 0.00, 0.00, 0.000, 0.000, 0.000, 15:02:31.855, 1563390151855
214, -28739.13, -7685.67, -38015.11, 0.00, 0.00, 0.00, 0.00, 0.00, 0.000, 0.000, 0.000, 15:02:31.855, 1563390151855
215, -28583.16, -7538.33, -37862.67, 0.00, 0.00, 0.00, 0.00, 0.00, 0.000, 0.000, 0.000, 15:02:31.855, 1563390151855
216, -28914.19, -7851.56, -38185.03, 0.00, 0.00, 0.00, 0.00, 0.00, 0.000, 0.000, 0.000, 15:02:31.855, 1563390151855
217, -29096.47, -8032.41, -38367.86, 0.00, 0.00, 0.00, 0.00, 0.00, 0.090, 0.040, 1.028, 15:02:31.855, 1563390151855
218, -28793.56, -7751.85, -38055.50, 0.00, 0.00, 0.00, 0.00, 0.00, 0.000, 0.000, 0.000, 15:02:31.855, 1563390151855
219, -28568.70, -7544.07, -37849.55, 0.00, 0.00, 0.00, 0.00, 0.00, 0.000, 0.000, 0.000, 15:02:31.855, 1563390151855
220, -28873.63, -7830.75, -38153.33, 0.00, 0.00, 0.00, 0.00, 0.00, 0.000, 0.000, 0.000, 15:02:31.855, 1563390151855
221, -29113.39, -8068.80, -38394.64, 0.00, 0.00, 0.00, 0.00, 0.00, 0.000, 0.000, 0.000, 15:02:31.855, 1563390151855
222, -28879.95, -7843.27, -38162.76, 0.00, 0.00, 0.00, 0.00, 0.00, 0.000, 0.000, 0.000, 15:02:31.855, 1563390151855
223, -28558.13, -7532.00, -37836.74, 0.00, 0.00, 0.00, 0.00, 0.00, 0.000, 0.000, 0.000, 15:02:31.855, 1563390151855
224, -28786.01, -7753.33, -38070.00, 0.00, 0.00, 0.00, 0.00, 0.00, 0.000, 0.000, 0.000, 15:02:31.855, 1563390151855
225, -29082.46, -8041.15, -38366.19, 0.00, 0.00, 0.00, 0.00, 0.00, 0.000, 0.000, 0.000, 15:02:31.855, 1563390151855
226, -28933.79, -7904.27, -38214.42, 0.00, 0.00, 0.00, 0.00, 0.00, 0.000, 0.000, 0.000, 15:02:31.855, 1563390151855
227, -28549.30, -7526.79, -37824.00, 0.00, 0.00, 0.00, 0.00, 0.00, 0.000, 0.000, 0.000, 15:02:31.855, 1563390151855
228, -28720.92, -7678.90, -38014.82, 0.00, 0.00, 0.00, 0.00, 0.00, 0.094, 0.042, 1.022, 15:02:31.855, 1563390151855
229, -29052.84, -8007.06, -38348.06, 0.00, 0.00, 0.00, 0.00, 0.00, 0.000, 0.000, 0.000, 15:02:31.855, 1563390151855
230, -29000.07, -7966.72, -38290.21, 0.00, 0.00, 0.00, 0.00, 0.00, 0.000, 0.000, 0.000, 15:02:31.855, 1563390151855
231, -28587.43, -7561.91, -37880.89, 0.00, 0.00, 0.00, 0.00, 0.00, 0.000, 0.000, 0.000, 15:02:31.855, 1563390151855
232, -28651.63, -7611.06, -37938.53, 0.00, 0.00, 0.00, 0.00, 0.00, 0.000, 0.000, 0.000, 15:02:31.855, 1563390151855
233, -28999.55, -7937.31, -38283.98, 0.00, 0.00, 0.00, 0.00, 0.00, 0.000, 0.000, 0.000, 15:02:31.855, 1563390151855
234, -29037.24, -7990.70, -38322.55, 0.00, 0.00, 0.00, 0.00, 0.00, 0.000, 0.000, 0.000, 15:02:31.855, 1563390151855
235, -28655.09, -7628.96, -37935.91, 0.00, 0.00, 0.00, 0.00, 0.00, 0.000, 0.000, 0.000, 15:02:31.855, 1563390151855
236, -28654.64, -7586.99, -37939.98, 0.00, 0.00, 0.00, 0.00, 0.00, 0.000, 0.000, 0.000, 15:02:31.855, 1563390151855
237, -28981.99, -7889.36, -38253.09, 0.00, 0.00, 0.00, 0.00, 0.00, 0.000, 0.000, 0.000, 15:02:31.855, 1563390151855
238, -29099.60, -8004.45, -38368.49, 0.00, 0.00, 0.00, 0.00, 0.00, 0.094, 0.044, 1.022, 15:02:31.855, 1563390151855
239, -28733.30, -7653.53, -38006.52, 0.00, 0.00, 0.00, 0.00, 0.00, 0.000, 0.000, 0.000, 15:02:31.855, 1563390151855
240, -28590.81, -7524.25, -37863.88, 0.00, 0.00, 0.00, 0.00, 0.00, 0.000, 0.000, 0.000, 15:02:31.855, 1563390151855
241, -28929.93, -7857.69, -38198.06, 0.00, 0.00, 0.00, 0.00, 0.00, 0.000, 0.000, 0.000, 15:02:31.855, 1563390151855
242, -29126.65, -8040.24, -38391.58, 0.00, 0.00, 0.00, 0.00, 0.00, 0.000, 0.000, 0.000, 15:02:31.855, 1563390151855
243, -28793.94, -7732.16, -38069.91, 0.00, 0.00, 0.00, 0.00, 0.00, 0.000, 0.000, 0.000, 15:02:31.855, 1563390151855
244, -28575.61, -7529.01, -37854.98, 0.00, 0.00, 0.00, 0.00, 0.00, 0.000, 0.000, 0.000, 15:02:31.856, 1563390151856
245, -28859.34, -7813.57, -38141.60, 0.00, 0.00, 0.00, 0.00, 0.00, 0.000, 0.000, 0.000, 15:02:31.856, 1563390151856
246, -29135.99, -8096.16, -38414.04, 0.00, 0.00, 0.00, 0.00, 0.00, 0.000, 0.000, 0.000, 15:02:31.856, 1563390151856
247, -28902.17, -7880.98, -38175.17, 0.00, 0.00, 0.00, 0.00, 0.00, 0.000, 0.000, 0.000, 15:02:31.856, 1563390151856
248, -28555.89, -7541.10, -37833.61, 0.00, 0.00, 0.00, 0.00, 0.00, 0.092, 0.050, 1.026, 15:02:31.856, 1563390151856
249, -28803.75, -7775.14, -38077.07, 0.00, 0.00, 0.00, 0.00, 0.00, 0.000, 0.000, 0.000, 15:02:31.856, 1563390151856
250, -29102.62, -8072.42, -38385.97, 0.00, 0.00, 0.00, 0.00, 0.00, 0.000, 0.000, 0.000, 15:02:31.856, 1563390151856
251, -28942.31, -7916.85, -38220.30, 0.00, 0.00, 0.00, 0.00, 0.00, 0.000, 0.000, 0.000, 15:02:31.856, 1563390151856
252, -28579.16, -7570.13, -37861.98, 0.00, 0.00, 0.00, 0.00, 0.00, 0.000, 0.000, 0.000, 15:02:31.856, 1563390151856
253, -28751.83, -7749.68, -38025.93, 0.00, 0.00, 0.00, 0.00, 0.00, 0.000, 0.000, 0.000, 15:02:31.856, 1563390151856
254, -29082.01, -8039.03, -38352.48, 0.00, 0.00, 0.00, 0.00, 0.00, 0.000, 0.000, 0.000, 15:02:31.856, 1563390151856
255, -29001.77, -7942.83, -38274.03, 0.00, 0.00, 0.00, 0.00, 0.00, 0.000, 0.000, 0.000, 15:02:31.856, 1563390151856
0, -28595.95, -7555.65, -37875.95, 0.00, 0.00, 0.00, 0.00, 0.00, 0.000, 0.000, 0.000, 15:02:31.856, 1563390151856
1, -28659.90, -7604.09, -37943.23, 0.00, 0.00, 0.00, 0.00, 0.00, 0.000, 0.000, 0.000, 15:02:31.856, 1563390151856
2, -28987.11, -7912.96, -38265.45, 0.00, 0.00, 0.00, 0.00, 0.00, 0.088, 0.044, 1.022, 15:02:31.856, 1563390151856
3, -29035.79, -7958.56, -38306.13, 0.00, 0.00, 0.00, 0.00, 0.00, 0.000, 0.000, 0.000, 15:02:31.856, 1563390151856
4, -28635.65, -7586.83, -37909.59, 0.00, 0.00, 0.00, 0.00, 0.00, 0.000, 0.000, 0.000, 15:02:31.856, 1563390151856
5, -28599.23, -7551.02, -37879.32, 0.00, 0.00, 0.00, 0.00, 0.00, 0.000, 0.000, 0.000, 15:02:31.856, 1563390151856
6, -28917.37, -7853.73, -38209.01, 0.00, 0.00, 0.00, 0.00, 0.00, 0.000, 0.000, 0.000, 15:02:31.856, 1563390151856
7, -29025.77, -7971.88, -38313.32, 0.00, 0.00, 0.00, 0.00, 0.00, 0.000, 0.000, 0.000, 15:02:31.856, 1563390151856
8, -28642.44, -7618.44, -37939.05, 0.00, 0.00, 0.00, 0.00, 0.00, 0.000, 0.000, 0.000, 15:02:31.856, 1563390151856
9, -28525.38, -7506.61, -37823.20, 0.00, 0.00, 0.00, 0.00, 0.00, 0.000, 0.000, 0.000, 15:02:31.856, 1563390151856
10, -28841.84, -7813.63, -38135.88, 0.00, 0.00, 0.00, 0.00, 0.00, 0.000, 0.000, 0.000, 15:02:31.856, 1563390151856
11, -29077.63, -8051.72, -38371.60, 0.00, 0.00, 0.00, 0.00, 0.00, 0.000, 0.000, 0.000, 15:02:31.856, 1563390151856
