%OpenBCI Raw EEG Data
%Number of channels = 8
%Sample Rate = 250.0 Hz
%First Column = SampleIndex
%Last Column = Timestamp 
%Other Columns = EEG data in microvolts followed by Accel Data (in G) interleaved with Aux Data
0, 0.00, 0.00, 0.00, 0.00, 0.00, 0.00, 0.00, 0.00, 0.000, 0.000, 0.000, 11:31:01.359, 1561476661359
1, -38526.96, -17250.23, 0.00, 0.00, 0.00, 0.00, 0.00, 0.00, 0.074, -0.040, 1.044, 11:31:01.375, 1561476661375
2, -37193.28, -15937.11, 0.00, 0.00, 0.00, 0.00, 0.00, 0.00, 0.000, 0.000, 0.000, 11:31:01.855, 1561476661855
3, -36624.05, -15377.24, 0.00, 0.00, 0.00, 0.00, 0.00, 0.00, 0.000, 0.000, 0.000, 11:31:01.855, 1561476661855
4, -37912.69, -16640.11, 0.00, 0.00, 0.00, 0.00, 0.00, 0.00, 0.000, 0.000, 0.000, 11:31:01.856, 1561476661856
5, -38672.70, -17385.74, 0.00, 0.00, 0.00, 0.00, 0.00, 0.00, 0.000, 0.000, 0.000, 11:31:01.856, 1561476661856
6, -37496.10, -16232.84, 0.00, 0.00, 0.00, 0.00, 0.00, 0.00, 0.000, 0.000, 0.000, 11:31:01.856, 1561476661856
7, -36588.55, -15343.64, 0.00, 0.00, 0.00, 0.00, 0.00, 0.00, 0.000, 0.000, 0.000, 11:31:01.856, 1561476661856
8, -37654.26, -16391.74, 0.00, 0.00, 0.00, 0.00, 0.00, 0.00, 0.068, -0.042, 1.036, 11:31:01.856, 1561476661856
9, -38669.16, -17386.19, 0.00, 0.00, 0.00, 0.00, 0.00, 0.00, 0.000, 0.000, 0.000, 11:31:01.856, 1561476661856
10, -37724.49, -16464.50, 0.00, 0.00, 0.00, 0.00, 0.00, 0.00, 0.000, 0.000, 0.000, 11:31:01.856, 1561476661856
11, -36602.72, -15362.51, 0.00, 0.00, 0.00, 0.00, 0.00, 0.00, 0.000, 0.000, 0.000, 11:31:01.856, 1561476661856
12, -37409.31, -16147.50, 0.00, 0.00, 0.00, 0.00, 0.00, 0.00, 0.000, 0.000, 0.000, 11:31:01.857, 1561476661857
13, -38644.11, -17360.64, 0.00, 0.00, 0.00, 0.00, 0.00, 0.00, 0.000, 0.000, 0.000, 11:31:01.857, 1561476661857
14, -37984.71, -16717.63, 0.00, 0.00, 0.00, 0.00, 0.00, 0.00, 0.000, 0.000, 0.000, 11:31:01.857, 1561476661857
15, -36670.25, -15426.37, 0.00, 0.00, 0.00, 0.00, 0.00, 0.00, 0.000, 0.000, 0.000, 11:31:01.857, 1561476661857
16, -37164.02, -15910.31, 0.00, 0.00, 0.00, 0.00, 0.00, 0.00, 0.000, 0.000, 0.000, 11:31:01.857, 1561476661857
17, -38525.96, -17252.84, 0.00, 0.00, 0.00, 0.00, 0.00, 0.00, 0.000, 0.000, 0.000, 11:31:01.857, 1561476661857
18, -38210.33, -16946.29, 0.00, 0.00, 0.00, 0.00, 0.00, 0.00, 0.070, -0.038, 1.026, 11:31:01.857, 1561476661857
19, -36816.92, -15576.10, 0.00, 0.00, 0.00, 0.00, 0.00, 0.00, 0.000, 0.000, 0.000, 11:31:01.857, 1561476661857
20, -36981.36, -15733.30, 0.00, 0.00, 0.00, 0.00, 0.00, 0.00, 0.000, 0.000, 0.000, 11:31:01.858, 1561476661858
21, -38386.44, -17110.13, 0.00, 0.00, 0.00, 0.00, 0.00, 0.00, 0.000, 0.000, 0.000, 11:31:01.858, 1561476661858
22, -38426.98, -17152.10, 0.00, 0.00, 0.00, 0.00, 0.00, 0.00, 0.000, 0.000, 0.000, 11:31:01.858, 1561476661858
23, -37024.86, -15771.19, 0.00, 0.00, 0.00, 0.00, 0.00, 0.00, 0.000, 0.000, 0.000, 11:31:01.858, 1561476661858
24, -36767.10, -15521.54, 0.00, 0.00, 0.00, 0.00, 0.00, 0.00, 0.000, 0.000, 0.000, 11:31:01.858, 1561476661858
25, -38141.37, -16875.59, 0.00, 0.00, 0.00, 0.00, 0.00, 0.00, 0.000, 0.000, 0.000, 11:31:01.858, 1561476661858
26, -38571.55, -17297.77, 0.00, 0.00, 0.00, 0.00, 0.00, 0.00, 0.000, 0.000, 0.000, 11:31:01.859, 1561476661859
27, -37259.24, -16007.25, 0.00, 0.00, 0.00, 0.00, 0.00, 0.00, 0.000, 0.000, 0.000, 11:31:01.859, 1561476661859
28, -36670.25, -15417.88, 0.00, 0.00, 0.00, 0.00, 0.00, 0.00, 0.074, -0.042, 1.032, 11:31:01.859, 1561476661859
29, -37933.50, -16651.85, 0.00, 0.00, 0.00, 0.00, 0.00, 0.00, 0.000, 0.000, 0.000, 11:31:01.859, 1561476661859
30, -38694.04, -17409.15, 0.00, 0.00, 0.00, 0.00, 0.00, 0.00, 0.000, 0.000, 0.000, 11:31:01.859, 1561476661859
31, -37523.30, -16261.79, 0.00, 0.00, 0.00, 0.00, 0.00, 0.00, 0.000, 0.000, 0.000, 11:31:01.860, 1561476661860
32, -36607.44, -15361.71, 0.00, 0.00, 0.00, 0.00, 0.00, 0.00, 0.000, 0.000, 0.000, 11:31:01.860, 1561476661860
33, -37650.53, -16378.42, 0.00, 0.00, 0.00, 0.00, 0.00, 0.00, 0.000, 0.000, 0.000, 11:31:01.860, 1561476661860
34, -38702.27, -17417.84, 0.00, 0.00, 0.00, 0.00, 0.00, 0.00, 0.000, 0.000, 0.000, 11:31:01.860, 1561476661860
35, -37766.15, -16508.10, 0.00, 0.00, 0.00, 0.00, 0.00, 0.00, 0.000, 0.000, 0.000, 11:31:01.860, 1561476661860
36, -36581.89, -15340.20, 0.00, 0.00, 0.00, 0.00, 0.00, 0.00, 0.000, 0.000, 0.000, 11:31:01.860, 1561476661860
37, -37353.30, -16091.56, 0.00, 0.00, 0.00, 0.00, 0.00, 0.00, 0.000, 0.000, 0.000, 11:31:01.860, 1561476661860
38, -38589.50, -17304.03, 0.00, 0.00, 0.00, 0.00, 0.00, 0.00, 0.000, 0.000, 0.000, 11:31:01.860, 1561476661860
39, -37985.83, -16707.53, 0.00, 0.00, 0.00, 0.00, 0.00, 0.00, 0.072, -0.040, 1.026, 11:31:01.860, 1561476661860
40, -36720.03, -15460.75, 0.00, 0.00, 0.00, 0.00, 0.00, 0.00, 0.000, 0.000, 0.000, 11:31:01.861, 1561476661861
41, -37225.09, -15959.10, 0.00, 0.00, 0.00, 0.00, 0.00, 0.00, 0.000, 0.000, 0.000, 11:31:01.861, 1561476661861
42, -38658.86, -17370.30, 0.00, 0.00, 0.00, 0.00, 0.00, 0.00, 0.000, 0.000, 0.000, 11:31:01.861, 1561476661861
43, -38375.66, -17092.09, 0.00, 0.00, 0.00, 0.00, 0.00, 0.00, 0.000, 0.000, 0.000, 11:31:01.861, 1561476661861
44, -36945.46, -15685.83, 0.00, 0.00, 0.00, 0.00, 0.00, 0.00, 0.000, 0.000, 0.000, 11:31:01.861, 1561476661861
45, -37019.27, -15754.49, 0.00, 0.00, 0.00, 0.00, 0.00, 0.00, 0.000, 0.000, 0.000, 11:31:01.861, 1561476661861
46, -38390.82, -17101.01, 0.00, 0.00, 0.00, 0.00, 0.00, 0.00, 0.000, 0.000, 0.000, 11:31:01.861, 1561476661861
47, -38450.34, -17164.26, 0.00, 0.00, 0.00, 0.00, 0.00, 0.00, 0.000, 0.000, 0.000, 11:31:01.861, 1561476661861
48, -37057.76, -15802.97, 0.00, 0.00, 0.00, 0.00, 0.00, 0.00, 0.000, 0.000, 0.000, 11:31:01.861, 1561476661861
49, -36796.27, -15540.52, 0.00, 0.00, 0.00, 0.00, 0.00, 0.00, 0.074, -0.040, 1.024, 11:31:01.861, 1561476661861
50, -38182.01, -16895.08, 0.00, 0.00, 0.00, 0.00, 0.00, 0.00, 0.000, 0.000, 0.000, 11:31:01.861, 1561476661861
51, -38650.16, -17354.61, 0.00, 0.00, 0.00, 0.00, 0.00, 0.00, 0.000, 0.000, 0.000, 11:31:01.861, 1561476661861
52, -37349.41, -16086.13, 0.00, 0.00, 0.00, 0.00, 0.00, 0.00, 0.000, 0.000, 0.000, 11:31:01.862, 1561476661862
53, -36737.30, -15483.88, 0.00, 0.00, 0.00, 0.00, 0.00, 0.00, 0.000, 0.000, 0.000, 11:31:01.862, 1561476661862
54, -37953.28, -16674.60, 0.00, 0.00, 0.00, 0.00, 0.00, 0.00, 0.000, 0.000, 0.000, 11:31:01.862, 1561476661862
55, -38722.29, -17429.26, 0.00, 0.00, 0.00, 0.00, 0.00, 0.00, 0.000, 0.000, 0.000, 11:31:01.862, 1561476661862
56, -37569.21, -16296.57, 0.00, 0.00, 0.00, 0.00, 0.00, 0.00, 0.000, 0.000, 0.000, 11:31:01.862, 1561476661862
57, -36626.17, -15371.45, 0.00, 0.00, 0.00, 0.00, 0.00, 0.00, 0.000, 0.000, 0.000, 11:31:01.862, 1561476661862
58, -37683.48, -16411.39, 0.00, 0.00, 0.00, 0.00, 0.00, 0.00, 0.000, 0.000, 0.000, 11:31:01.862, 1561476661862
59, -38765.01, -17473.81, 0.00, 0.00, 0.00, 0.00, 0.00, 0.00, 0.076, -0.044, 1.026, 11:31:01.863, 1561476661863
60, -37860.03, -16585.31, 0.00, 0.00, 0.00, 0.00, 0.00, 0.00, 0.000, 0.000, 0.000, 11:31:01.863, 1561476661863
61, -36685.92, -15431.60, 0.00, 0.00, 0.00, 0.00, 0.00, 0.00, 0.000, 0.000, 0.000, 11:31:01.863, 1561476661863
62, -37468.92, -16195.11, 0.00, 0.00, 0.00, 0.00, 0.00, 0.00, 0.000, 0.000, 0.000, 11:31:01.863, 1561476661863
63, -38743.51, -17448.53, 0.00, 0.00, 0.00, 0.00, 0.00, 0.00, 0.000, 0.000, 0.000, 11:31:01.863, 1561476661863
64, -38117.70, -16835.42, 0.00, 0.00, 0.00, 0.00, 0.00, 0.00, 0.000, 0.000, 0.000, 11:31:01.863, 1561476661863
65, -36784.78, -15530.24, 0.00, 0.00, 0.00, 0.00, 0.00, 0.00, 0.000, 0.000, 0.000, 11:31:01.863, 1561476661863
66, -37238.36, -15973.90, 0.00, 0.00, 0.00, 0.00, 0.00, 0.00, 0.000, 0.000, 0.000, 11:31:01.863, 1561476661863
67, -38610.80, -17320.66, 0.00, 0.00, 0.00, 0.00, 0.00, 0.00, 0.000, 0.000, 0.000, 11:31:01.863, 1561476661863
68, -38339.66, -17052.64, 0.00, 0.00, 0.00, 0.00, 0.00, 0.00, 0.000, 0.000, 0.000, 11:31:01.863, 1561476661863
69, -36943.27, -15680.84, 0.00, 0.00, 0.00, 0.00, 0.00, 0.00, 0.076, -0.048, 1.034, 11:31:01.863, 1561476661863
70, -37040.68, -15769.60, 0.00, 0.00, 0.00, 0.00, 0.00, 0.00, 0.000, 0.000, 0.000, 11:31:01.863, 1561476661863
71, -38438.27, -17144.59, 0.00, 0.00, 0.00, 0.00, 0.00, 0.00, 0.000, 0.000, 0.000, 11:31:01.863, 1561476661863
72, -38515.99, -17220.81, 0.00, 0.00, 0.00, 0.00, 0.00, 0.00, 0.000, 0.000, 0.000, 11:31:01.864, 1561476661864
73, -37137.60, -15873.81, 0.00, 0.00, 0.00, 0.00, 0.00, 0.00, 0.000, 0.000, 0.000, 11:31:01.864, 1561476661864
74, -36864.26, -15607.35, 0.00, 0.00, 0.00, 0.00, 0.00, 0.00, 0.000, 0.000, 0.000, 11:31:01.864, 1561476661864
75, -38202.93, -16920.38, 0.00, 0.00, 0.00, 0.00, 0.00, 0.00, 0.000, 0.000, 0.000, 11:31:01.864, 1561476661864
76, -38655.46, -17361.31, 0.00, 0.00, 0.00, 0.00, 0.00, 0.00, 0.000, 0.000, 0.000, 11:31:01.864, 1561476661864
77, -37370.82, -16101.84, 0.00, 0.00, 0.00, 0.00, 0.00, 0.00, 0.000, 0.000, 0.000, 11:31:01.864, 1561476661864
78, -36750.29, -15495.35, 0.00, 0.00, 0.00, 0.00, 0.00, 0.00, 0.000, 0.000, 0.000, 11:31:01.864, 1561476661864
79, -37971.90, -16689.78, 0.00, 0.00, 0.00, 0.00, 0.00, 0.00, 0.072, -0.044, 1.034, 11:31:01.864, 1561476661864
80, -38770.71, -17475.24, 0.00, 0.00, 0.00, 0.00, 0.00, 0.00, 0.000, 0.000, 0.000, 11:31:01.864, 1561476661864
81, -37639.31, -16363.24, 0.00, 0.00, 0.00, 0.00, 0.00, 0.00, 0.000, 0.000, 0.000, 11:31:01.864, 1561476661864
82, -36683.93, -15426.46, 0.00, 0.00, 0.00, 0.00, 0.00, 0.00, 0.000, 0.000, 0.000, 11:31:01.864, 1561476661864
83, -37696.82, -16420.46, 0.00, 0.00, 0.00, 0.00, 0.00, 0.00, 0.000, 0.000, 0.000, 11:31:01.864, 1561476661864
84, -38776.68, -17488.99, 0.00, 0.00, 0.00, 0.00, 0.00, 0.00, 0.000, 0.000, 0.000, 11:31:01.864, 1561476661864
85, -37897.23, -16622.52, 0.00, 0.00, 0.00, 0.00, 0.00, 0.00, 0.000, 0.000, 0.000, 11:31:01.864, 1561476661864
86, -36723.45, -15465.78, 0.00, 0.00, 0.00, 0.00, 0.00, 0.00, 0.000, 0.000, 0.000, 11:31:01.864, 1561476661864
87, -37483.34, -16214.56, 0.00, 0.00, 0.00, 0.00, 0.00, 0.00, 0.000, 0.000, 0.000, 11:31:01.864, 1561476661864
88, -38736.51, -17446.54, 0.00, 0.00, 0.00, 0.00, 0.00, 0.00, 0.000, 0.000, 0.000, 11:31:01.864, 1561476661864
89, -38128.23, -16846.78, 0.00, 0.00, 0.00, 0.00, 0.00, 0.00, 0.072, -0.044, 1.036, 11:31:01.864, 1561476661864
90, -36795.91, -15536.96, 0.00, 0.00, 0.00, 0.00, 0.00, 0.00, 0.000, 0.000, 0.000, 11:31:01.864, 1561476661864
91, -37217.20, -15950.07, 0.00, 0.00, 0.00, 0.00, 0.00, 0.00, 0.000, 0.000, 0.000, 11:31:01.864, 1561476661864
92, -38597.59, -17304.21, 0.00, 0.00, 0.00, 0.00, 0.00, 0.00, 0.000, 0.000, 0.000, 11:31:01.865, 1561476661865
93, -38370.99, -17087.60, 0.00, 0.00, 0.00, 0.00, 0.00, 0.00, 0.000, 0.000, 0.000, 11:31:01.865, 1561476661865
94, -36984.58, -15730.98, 0.00, 0.00, 0.00, 0.00, 0.00, 0.00, 0.000, 0.000, 0.000, 11:31:01.865, 1561476661865
95, -37054.09, -15794.90, 0.00, 0.00, 0.00, 0.00, 0.00, 0.00, 0.000, 0.000, 0.000, 11:31:01.865, 1561476661865
96, -38436.28, -17153.35, 0.00, 0.00, 0.00, 0.00, 0.00, 0.00, 0.000, 0.000, 0.000, 11:31:01.865, 1561476661865
97, -38546.68, -17266.79, 0.00, 0.00, 0.00, 0.00, 0.00, 0.00, 0.000, 0.000, 0.000, 11:31:01.865, 1561476661865
98, -37169.27, -15913.91, 0.00, 0.00, 0.00, 0.00, 0.00, 0.00, 0.000, 0.000, 0.000, 11:31:01.865, 1561476661865
99, -36881.43, -15630.24, 0.00, 0.00, 0.00, 0.00, 0.00, 0.00, 0.000, 0.000, 0.000, 11:31:01.865, 1561476661865
100, -38226.98, -16950.49, 0.00, 0.00, 0.00, 0.00, 0.00, 0.00, 0.072, -0.042, 1.034, 11:31:01.865, 1561476661865
101, -38716.64, -17428.44, 0.00, 0.00, 0.00, 0.00, 0.00, 0.00, 0.000, 0.000, 0.000, 11:31:01.865, 1561476661865
102, -37432.62, -16168.13, 0.00, 0.00, 0.00, 0.00, 0.00, 0.00, 0.000, 0.000, 0.000, 11:31:01.865, 1561476661865
103, -36771.46, -15514.70, 0.00, 0.00, 0.00, 0.00, 0.00, 0.00, 0.000, 0.000, 0.000, 11:31:01.865, 1561476661865
104, -37968.24, -16689.85, 0.00, 0.00, 0.00, 0.00, 0.00, 0.00, 0.000, 0.000, 0.000, 11:31:01.865, 1561476661865
105, -38771.56, -17481.05, 0.00, 0.00, 0.00, 0.00, 0.00, 0.00, 0.000, 0.000, 0.000, 11:31:01.865, 1561476661865
106, -37659.80, -16390.94, 0.00, 0.00, 0.00, 0.00, 0.00, 0.00, 0.000, 0.000, 0.000, 11:31:01.865, 1561476661865
107, -36695.66, -15445.05, 0.00, 0.00, 0.00, 0.00, 0.00, 0.00, 0.000, 0.000, 0.000, 11:31:01.865, 1561476661865
108, -37700.51, -16431.71, 0.00, 0.00, 0.00, 0.00, 0.00, 0.00, 0.000, 0.000, 0.000, 11:31:01.865, 1561476661865
109, -38802.31, -17506.65, 0.00, 0.00, 0.00, 0.00, 0.00, 0.00, 0.000, 0.000, 0.000, 11:31:01.865, 1561476661865
110, -37945.41, -16676.37, 0.00, 0.00, 0.00, 0.00, 0.00, 0.00, 0.076, -0.044, 1.032, 11:31:01.865, 1561476661865
111, -36752.14, -15507.89, 0.00, 0.00, 0.00, 0.00, 0.00, 0.00, 0.000, 0.000, 0.000, 11:31:01.865, 1561476661865
112, -37469.17, -16209.42, 0.00, 0.00, 0.00, 0.00, 0.00, 0.00, 0.000, 0.000, 0.000, 11:31:01.865, 1561476661865
113, -38736.78, -17455.21, 0.00, 0.00, 0.00, 0.00, 0.00, 0.00, 0.000, 0.000, 0.000, 11:31:01.866, 1561476661866
114, -38164.91, -16888.31, 0.00, 0.00, 0.00, 0.00, 0.00, 0.00, 0.000, 0.000, 0.000, 11:31:01.866, 1561476661866
115, -36831.32, -15574.34, 0.00, 0.00, 0.00, 0.00, 0.00, 0.00, 0.000, 0.000, 0.000, 11:31:01.866, 1561476661866
116, -37243.68, -15981.76, 0.00, 0.00, 0.00, 0.00, 0.00, 0.00, 0.000, 0.000, 0.000, 11:31:01.866, 1561476661866
117, -38622.00, -17334.80, 0.00, 0.00, 0.00, 0.00, 0.00, 0.00, 0.000, 0.000, 0.000, 11:31:01.866, 1561476661866
118, -38395.98, -17117.52, 0.00, 0.00, 0.00, 0.00, 0.00, 0.00, 0.000, 0.000, 0.000, 11:31:01.866, 1561476661866
119, -37006.98, -15758.47, 0.00, 0.00, 0.00, 0.00, 0.00, 0.00, 0.000, 0.000, 0.000, 11:31:01.866, 1561476661866
120, -37046.32, -15795.26, 0.00, 0.00, 0.00, 0.00, 0.00, 0.00, 0.078, -0.044, 1.032, 11:31:01.866, 1561476661866
121, -38441.24, -17162.16, 0.00, 0.00, 0.00, 0.00, 0.00, 0.00, 0.000, 0.000, 0.000, 11:31:01.866, 1561476661866
122, -38584.03, -17303.22, 0.00, 0.00, 0.00, 0.00, 0.00, 0.00, 0.000, 0.000, 0.000, 11:31:02.337, 1561476662337
123, -37220.62, -15963.77, 0.00, 0.00, 0.00, 0.00, 0.00, 0.00, 0.000, 0.000, 0.000, 11:31:02.337, 1561476662337
124, -36890.86, -15635.36, 0.00, 0.00, 0.00, 0.00, 0.00, 0.00, 0.000, 0.000, 0.000, 11:31:02.338, 1561476662338
125, -38220.92, -16938.80, 0.00, 0.00, 0.00, 0.00, 0.00, 0.00, 0.000, 0.000, 0.000, 11:31:02.338, 1561476662338
126, -38727.66, -17439.23, 0.00, 0.00, 0.00, 0.00, 0.00, 0.00, 0.000, 0.000, 0.000, 11:31:02.338, 1561476662338
127, -37453.95, -16190.87, 0.00, 0.00, 0.00, 0.00, 0.00, 0.00, 0.000, 0.000, 0.000, 11:31:02.338, 1561476662338
128, -36782.68, -15527.17, 0.00, 0.00, 0.00, 0.00, 0.00, 0.00, 0.000, 0.000, 0.000, 11:31:02.338, 1561476662338
129, -37975.52, -16696.84, 0.00, 0.00, 0.00, 0.00, 0.00, 0.00, 0.000, 0.000, 0.000, 11:31:02.338, 1561476662338
130, -38789.02, -17499.34, 0.00, 0.00, 0.00, 0.00, 0.00, 0.00, 0.078, -0.038, 1.028, 11:31:02.338, 1561476662338
131, -37688.21, -16422.21, 0.00, 0.00, 0.00, 0.00, 0.00, 0.00, 0.000, 0.000, 0.000, 11:31:02.338, 1561476662338
132, -36723.96, -15469.37, 0.00, 0.00, 0.00, 0.00, 0.00, 0.00, 0.000, 0.000, 0.000, 11:31:02.338, 1561476662338
133, -37713.58, -16440.18, 0.00, 0.00, 0.00, 0.00, 0.00, 0.00, 0.000, 0.000, 0.000, 11:31:02.338, 1561476662338
134, -38811.55, -17526.09, 0.00, 0.00, 0.00, 0.00, 0.00, 0.00, 0.000, 0.000, 0.000, 11:31:02.338, 1561476662338
135, -37957.02, -16693.82, 0.00, 0.00, 0.00, 0.00, 0.00, 0.00, 0.000, 0.000, 0.000, 11:31:02.338, 1561476662338
136, -36761.38, -15513.12, 0.00, 0.00, 0.00, 0.00, 0.00, 0.00, 0.000, 0.000, 0.000, 11:31:02.338, 1561476662338
137, -37479.61, -16211.09, 0.00, 0.00, 0.00, 0.00, 0.00, 0.00, 0.000, 0.000, 0.000, 11:31:02.338, 1561476662338
138, -38761.10, -17477.81, 0.00, 0.00, 0.00, 0.00, 0.00, 0.00, 0.000, 0.000, 0.000, 11:31:02.338, 1561476662338
139, -38210.62, -16934.20, 0.00, 0.00, 0.00, 0.00, 0.00, 0.00, 0.000, 0.000, 0.000, 11:31:02.338, 1561476662338
140, -36889.43, -15628.70, 0.00, 0.00, 0.00, 0.00, 0.00, 0.00, 0.076, -0.036, 1.036, 11:31:02.338, 1561476662338
141, -37281.25, -16014.35, 0.00, 0.00, 0.00, 0.00, 0.00, 0.00, 0.000, 0.000, 0.000, 11:31:02.338, 1561476662338
142, -38647.19, -17360.31, 0.00, 0.00, 0.00, 0.00, 0.00, 0.00, 0.000, 0.000, 0.000, 11:31:02.338, 1561476662338
143, -38443.37, -17162.41, 0.00, 0.00, 0.00, 0.00, 0.00, 0.00, 0.000, 0.000, 0.000, 11:31:02.338, 1561476662338
144, -37048.39, -15795.69, 0.00, 0.00, 0.00, 0.00, 0.00, 0.00, 0.000, 0.000, 0.000, 11:31:02.338, 1561476662338
145, -37060.27, -15802.66, 0.00, 0.00, 0.00, 0.00, 0.00, 0.00, 0.000, 0.000, 0.000, 11:31:02.338, 1561476662338
146, -38432.39, -17146.80, 0.00, 0.00, 0.00, 0.00, 0.00, 0.00, 0.000, 0.000, 0.000, 11:31:02.338, 1561476662338
147, -38597.24, -17310.17, 0.00, 0.00, 0.00, 0.00, 0.00, 0.00, 0.000, 0.000, 0.000, 11:31:02.338, 1561476662338
148, -37247.37, -15988.63, 0.00, 0.00, 0.00, 0.00, 0.00, 0.00, 0.000, 0.000, 0.000, 11:31:02.338, 1561476662338
149, -36916.32, -15660.44, 0.00, 0.00, 0.00, 0.00, 0.00, 0.00, 0.000, 0.000, 0.000, 11:31:02.339, 1561476662339
150, -38239.43, -16959.21, 0.00, 0.00, 0.00, 0.00, 0.00, 0.00, 0.000, 0.000, 0.000, 11:31:02.339, 1561476662339
151, -38768.70, -17481.57, 0.00, 0.00, 0.00, 0.00, 0.00, 0.00, 0.078, -0.038, 1.028, 11:31:02.339, 1561476662339
152, -37511.34, -16247.35, 0.00, 0.00, 0.00, 0.00, 0.00, 0.00, 0.000, 0.000, 0.000, 11:31:02.339, 1561476662339
153, -36813.12, -15564.17, 0.00, 0.00, 0.00, 0.00, 0.00, 0.00, 0.000, 0.000, 0.000, 11:31:02.339, 1561476662339
154, -37979.99, -16703.14, 0.00, 0.00, 0.00, 0.00, 0.00, 0.00, 0.000, 0.000, 0.000, 11:31:02.339, 1561476662339
155, -38825.00, -17533.96, 0.00, 0.00, 0.00, 0.00, 0.00, 0.00, 0.000, 0.000, 0.000, 11:31:02.339, 1561476662339
156, -37745.01, -16480.03, 0.00, 0.00, 0.00, 0.00, 0.00, 0.00, 0.000, 0.000, 0.000, 11:31:02.339, 1561476662339
157, -36772.69, -15529.63, 0.00, 0.00, 0.00, 0.00, 0.00, 0.00, 0.000, 0.000, 0.000, 11:31:02.339, 1561476662339
158, -37754.20, -16487.27, 0.00, 0.00, 0.00, 0.00, 0.00, 0.00, 0.000, 0.000, 0.000, 11:31:02.339, 1561476662339
159, -38844.69, -17549.83, 0.00, 0.00, 0.00, 0.00, 0.00, 0.00, 0.000, 0.000, 0.000, 11:31:02.339, 1561476662339
160, -38013.75, -16733.95, 0.00, 0.00, 0.00, 0.00, 0.00, 0.00, 0.000, 0.000, 0.000, 11:31:02.340, 1561476662340
161, -36819.94, -15565.40, 0.00, 0.00, 0.00, 0.00, 0.00, 0.00, 0.078, -0.040, 1.032, 11:31:02.340, 1561476662340
162, -37511.48, -16242.21, 0.00, 0.00, 0.00, 0.00, 0.00, 0.00, 0.000, 0.000, 0.000, 11:31:02.340, 1561476662340
163, -38770.08, -17481.05, 0.00, 0.00, 0.00, 0.00, 0.00, 0.00, 0.000, 0.000, 0.000, 11:31:02.340, 1561476662340
164, -38226.33, -16947.56, 0.00, 0.00, 0.00, 0.00, 0.00, 0.00, 0.000, 0.000, 0.000, 11:31:02.340, 1561476662340
165, -36900.92, -15652.12, 0.00, 0.00, 0.00, 0.00, 0.00, 0.00, 0.000, 0.000, 0.000, 11:31:02.340, 1561476662340
166, -37273.34, -16016.68, 0.00, 0.00, 0.00, 0.00, 0.00, 0.00, 0.000, 0.000, 0.000, 11:31:02.340, 1561476662340
167, -38657.74, -17371.93, 0.00, 0.00, 0.00, 0.00, 0.00, 0.00, 0.000, 0.000, 0.000, 11:31:02.340, 1561476662340
168, -38483.09, -17202.91, 0.00, 0.00, 0.00, 0.00, 0.00, 0.00, 0.000, 0.000, 0.000, 11:31:02.340, 1561476662340
169, -37100.56, -15845.96, 0.00, 0.00, 0.00, 0.00, 0.00, 0.00, 0.000, 0.000, 0.000, 11:31:02.340, 1561476662340
170, -37088.54, -15830.60, 0.00, 0.00, 0.00, 0.00, 0.00, 0.00, 0.000, 0.000, 0.000, 11:31:02.340, 1561476662340
171, -38457.34, -17170.43, 0.00, 0.00, 0.00, 0.00, 0.00, 0.00, 0.076, -0.040, 1.028, 11:31:02.340, 1561476662340
172, -38632.78, -17347.21, 0.00, 0.00, 0.00, 0.00, 0.00, 0.00, 0.000, 0.000, 0.000, 11:31:02.340, 1561476662340
173, -37288.86, -16030.33, 0.00, 0.00, 0.00, 0.00, 0.00, 0.00, 0.000, 0.000, 0.000, 11:31:02.340, 1561476662340
174, -36922.64, -15665.02, 0.00, 0.00, 0.00, 0.00, 0.00, 0.00, 0.000, 0.000, 0.000, 11:31:02.340, 1561476662340
175, -38231.29, -16949.15, 0.00, 0.00, 0.00, 0.00, 0.00, 0.00, 0.000, 0.000, 0.000, 11:31:02.340, 1561476662340
176, -38765.16, -17480.20, 0.00, 0.00, 0.00, 0.00, 0.00, 0.00, 0.000, 0.000, 0.000, 11:31:02.340, 1561476662340
177, -37514.54, -16255.80, 0.00, 0.00, 0.00, 0.00, 0.00, 0.00, 0.000, 0.000, 0.000, 11:31:02.340, 1561476662340
178, -36795.15, -15552.05, 0.00, 0.00, 0.00, 0.00, 0.00, 0.00, 0.000, 0.000, 0.000, 11:31:02.340, 1561476662340
179, -37941.19, -16670.36, 0.00, 0.00, 0.00, 0.00, 0.00, 0.00, 0.000, 0.000, 0.000, 11:31:02.340, 1561476662340
180, -38787.79, -17497.30, 0.00, 0.00, 0.00, 0.00, 0.00, 0.00, 0.000, 0.000, 0.000, 11:31:02.340, 1561476662340
181, -37715.80, -16446.12, 0.00, 0.00, 0.00, 0.00, 0.00, 0.00, 0.076, -0.040, 1.028, 11:31:02.340, 1561476662340
182, -36755.52, -15501.54, 0.00, 0.00, 0.00, 0.00, 0.00, 0.00, 0.000, 0.000, 0.000, 11:31:02.340, 1561476662340
183, -37766.13, -16489.75, 0.00, 0.00, 0.00, 0.00, 0.00, 0.00, 0.000, 0.000, 0.000, 11:31:02.340, 1561476662340
184, -38917.34, -17626.67, 0.00, 0.00, 0.00, 0.00, 0.00, 0.00, 0.000, 0.000, 0.000, 11:31:02.340, 1561476662340
185, -38124.25, -16850.55, 0.00, 0.00, 0.00, 0.00, 0.00, 0.00, 0.000, 0.000, 0.000, 11:31:02.341, 1561476662341
186, -36921.57, -15665.96, 0.00, 0.00, 0.00, 0.00, 0.00, 0.00, 0.000, 0.000, 0.000, 11:31:02.341, 1561476662341
187, -37569.23, -16297.39, 0.00, 0.00, 0.00, 0.00, 0.00, 0.00, 0.000, 0.000, 0.000, 11:31:02.341, 1561476662341
188, -38807.03, -17512.57, 0.00, 0.00, 0.00, 0.00, 0.00, 0.00, 0.000, 0.000, 0.000, 11:31:02.341, 1561476662341
189, -38283.15, -17001.07, 0.00, 0.00, 0.00, 0.00, 0.00, 0.00, 0.000, 0.000, 0.000, 11:31:02.341, 1561476662341
190, -36931.16, -15676.60, 0.00, 0.00, 0.00, 0.00, 0.00, 0.00, 0.000, 0.000, 0.000, 11:31:02.341, 1561476662341
191, -37281.39, -16019.32, 0.00, 0.00, 0.00, 0.00, 0.00, 0.00, 0.070, -0.038, 1.030, 11:31:02.341, 1561476662341
192, -38671.69, -17381.45, 0.00, 0.00, 0.00, 0.00, 0.00, 0.00, 0.000, 0.000, 0.000, 11:31:02.341, 1561476662341
193, -38512.17, -17225.39, 0.00, 0.00, 0.00, 0.00, 0.00, 0.00, 0.000, 0.000, 0.000, 11:31:02.341, 1561476662341
194, -37114.15, -15856.42, 0.00, 0.00, 0.00, 0.00, 0.00, 0.00, 0.000, 0.000, 0.000, 11:31:02.341, 1561476662341
195, -37088.72, -15827.92, 0.00, 0.00, 0.00, 0.00, 0.00, 0.00, 0.000, 0.000, 0.000, 11:31:02.341, 1561476662341
196, -38465.29, -17179.64, 0.00, 0.00, 0.00, 0.00, 0.00, 0.00, 0.000, 0.000, 0.000, 11:31:02.341, 1561476662341
197, -38685.23, -17399.49, 0.00, 0.00, 0.00, 0.00, 0.00, 0.00, 0.000, 0.000, 0.000, 11:31:02.341, 1561476662341
198, -37339.64, -16080.34, 0.00, 0.00, 0.00, 0.00, 0.00, 0.00, 0.000, 0.000, 0.000, 11:31:02.341, 1561476662341
199, -36932.90, -15673.51, 0.00, 0.00, 0.00, 0.00, 0.00, 0.00, 0.000, 0.000, 0.000, 11:31:02.341, 1561476662341
200, -38240.91, -16954.15, 0.00, 0.00, 0.00, 0.00, 0.00, 0.00, 0.000, 0.000, 0.000, 11:31:02.341, 1561476662341
201, -38835.46, -17535.59, 0.00, 0.00, 0.00, 0.00, 0.00, 0.00, 0.000, 0.000, 0.000, 11:31:02.341, 1561476662341
202, -37585.39, -16309.64, 0.00, 0.00, 0.00, 0.00, 0.00, 0.00, 0.070, -0.040, 1.030, 11:31:02.341, 1561476662341
203, -36838.60, -15574.14, 0.00, 0.00, 0.00, 0.00, 0.00, 0.00, 0.000, 0.000, 0.000, 11:31:02.341, 1561476662341
204, -37989.45, -16706.72, 0.00, 0.00, 0.00, 0.00, 0.00, 0.00, 0.000, 0.000, 0.000, 11:31:02.341, 1561476662341
205, -38867.31, -17573.48, 0.00, 0.00, 0.00, 0.00, 0.00, 0.00, 0.000, 0.000, 0.000, 11:31:02.341, 1561476662341
206, -37819.87, -16547.64, 0.00, 0.00, 0.00, 0.00, 0.00, 0.00, 0.000, 0.000, 0.000, 11:31:02.341, 1561476662341
207, -36814.80, -15556.57, 0.00, 0.00, 0.00, 0.00, 0.00, 0.00, 0.000, 0.000, 0.000, 11:31:02.341, 1561476662341
208, -37765.51, -16484.52, 0.00, 0.00, 0.00, 0.00, 0.00, 0.00, 0.000, 0.000, 0.000, 11:31:02.341, 1561476662341
209, -38879.20, -17582.75, 0.00, 0.00, 0.00, 0.00, 0.00, 0.00, 0.000, 0.000, 0.000, 11:31:02.341, 1561476662341
210, -38069.24, -16791.48, 0.00, 0.00, 0.00, 0.00, 0.00, 0.00, 0.000, 0.000, 0.000, 11:31:02.342, 1561476662342
211, -36856.80, -15598.01, 0.00, 0.00, 0.00, 0.00, 0.00, 0.00, 0.000, 0.000, 0.000, 11:31:02.342, 1561476662342
212, -37520.57, -16245.60, 0.00, 0.00, 0.00, 0.00, 0.00, 0.00, 0.070, -0.040, 1.032, 11:31:02.342, 1561476662342
213, -38824.44, -17524.46, 0.00, 0.00, 0.00, 0.00, 0.00, 0.00, 0.000, 0.000, 0.000, 11:31:02.342, 1561476662342
214, -38329.06, -17043.72, 0.00, 0.00, 0.00, 0.00, 0.00, 0.00, 0.000, 0.000, 0.000, 11:31:02.342, 1561476662342
215, -36964.73, -15706.59, 0.00, 0.00, 0.00, 0.00, 0.00, 0.00, 0.000, 0.000, 0.000, 11:31:02.342, 1561476662342
216, -37288.27, -16019.36, 0.00, 0.00, 0.00, 0.00, 0.00, 0.00, 0.000, 0.000, 0.000, 11:31:02.342, 1561476662342
217, -38671.40, -17375.22, 0.00, 0.00, 0.00, 0.00, 0.00, 0.00, 0.000, 0.000, 0.000, 11:31:02.342, 1561476662342
218, -38544.89, -17255.99, 0.00, 0.00, 0.00, 0.00, 0.00, 0.00, 0.000, 0.000, 0.000, 11:31:02.342, 1561476662342
219, -37155.88, -15891.02, 0.00, 0.00, 0.00, 0.00, 0.00, 0.00, 0.000, 0.000, 0.000, 11:31:02.342, 1561476662342
220, -37097.66, -15828.43, 0.00, 0.00, 0.00, 0.00, 0.00, 0.00, 0.000, 0.000, 0.000, 11:31:02.342, 1561476662342
221, -38463.84, -17170.07, 0.00, 0.00, 0.00, 0.00, 0.00, 0.00, 0.000, 0.000, 0.000, 11:31:02.342, 1561476662342
222, -38709.02, -17412.77, 0.00, 0.00, 0.00, 0.00, 0.00, 0.00, 0.070, -0.044, 1.032, 11:31:02.342, 1561476662342
223, -37377.46, -16107.92, 0.00, 0.00, 0.00, 0.00, 0.00, 0.00, 0.000, 0.000, 0.000, 11:31:02.342, 1561476662342
224, -36956.51, -15694.99, 0.00, 0.00, 0.00, 0.00, 0.00, 0.00, 0.000, 0.000, 0.000, 11:31:02.342, 1561476662342
225, -38235.14, -16949.46, 0.00, 0.00, 0.00, 0.00, 0.00, 0.00, 0.000, 0.000, 0.000, 11:31:02.342, 1561476662342
226, -38815.95, -17516.59, 0.00, 0.00, 0.00, 0.00, 0.00, 0.00, 0.000, 0.000, 0.000, 11:31:02.343, 1561476662343
227, -37616.35, -16342.32, 0.00, 0.00, 0.00, 0.00, 0.00, 0.00, 0.000, 0.000, 0.000, 11:31:02.343, 1561476662343
228, -36886.30, -15626.15, 0.00, 0.00, 0.00, 0.00, 0.00, 0.00, 0.000, 0.000, 0.000, 11:31:02.343, 1561476662343
229, -38028.47, -16745.41, 0.00, 0.00, 0.00, 0.00, 0.00, 0.00, 0.000, 0.000, 0.000, 11:31:02.343, 1561476662343
230, -38910.86, -17608.93, 0.00, 0.00, 0.00, 0.00, 0.00, 0.00, 0.000, 0.000, 0.000, 11:31:02.343, 1561476662343
231, -37876.57, -16593.67, 0.00, 0.00, 0.00, 0.00, 0.00, 0.00, 0.000, 0.000, 0.000, 11:31:02.343, 1561476662343
232, -36830.24, -15565.71, 0.00, 0.00, 0.00, 0.00, 0.00, 0.00, 0.076, -0.038, 1.030, 11:31:02.343, 1561476662343
233, -37738.73, -16453.92, 0.00, 0.00, 0.00, 0.00, 0.00, 0.00, 0.000, 0.000, 0.000, 11:31:02.343, 1561476662343
234, -38880.86, -17579.56, 0.00, 0.00, 0.00, 0.00, 0.00, 0.00, 0.000, 0.000, 0.000, 11:31:02.343, 1561476662343
235, -38112.50, -16829.68, 0.00, 0.00, 0.00, 0.00, 0.00, 0.00, 0.000, 0.000, 0.000, 11:31:02.343, 1561476662343
236, -36903.96, -15646.62, 0.00, 0.00, 0.00, 0.00, 0.00, 0.00, 0.000, 0.000, 0.000, 11:31:02.344, 1561476662344
237, -37527.30, -16253.63, 0.00, 0.00, 0.00, 0.00, 0.00, 0.00, 0.000, 0.000, 0.000, 11:31:02.344, 1561476662344
238, -38826.72, -17528.37, 0.00, 0.00, 0.00, 0.00, 0.00, 0.00, 0.000, 0.000, 0.000, 11:31:02.344, 1561476662344
239, -38355.50, -17068.95, 0.00, 0.00, 0.00, 0.00, 0.00, 0.00, 0.000, 0.000, 0.000, 11:31:02.344, 1561476662344
240, -37008.03, -15746.80, 0.00, 0.00, 0.00, 0.00, 0.00, 0.00, 0.000, 0.000, 0.000, 11:31:02.344, 1561476662344
241, -37297.04, -16027.97, 0.00, 0.00, 0.00, 0.00, 0.00, 0.00, 0.000, 0.000, 0.000, 11:31:02.344, 1561476662344
242, -38689.73, -17387.73, 0.00, 0.00, 0.00, 0.00, 0.00, 0.00, 0.076, -0.034, 1.034, 11:31:02.344, 1561476662344
243, -38581.97, -17285.81, 0.00, 0.00, 0.00, 0.00, 0.00, 0.00, 0.000, 0.000, 0.000, 11:31:02.818, 1561476662818
244, -37188.70, -15922.40, 0.00, 0.00, 0.00, 0.00, 0.00, 0.00, 0.000, 0.000, 0.000, 11:31:02.818, 1561476662818
245, -37098.66, -15834.91, 0.00, 0.00, 0.00, 0.00, 0.00, 0.00, 0.000, 0.000, 0.000, 11:31:02.818, 1561476662818
246, -38464.16, -17177.27, 0.00, 0.00, 0.00, 0.00, 0.00, 0.00, 0.000, 0.000, 0.000, 11:31:02.818, 1561476662818
247, -38746.95, -17452.78, 0.00, 0.00, 0.00, 0.00, 0.00, 0.00, 0.000, 0.000, 0.000, 11:31:02.818, 1561476662818
248, -37438.95, -16167.28, 0.00, 0.00, 0.00, 0.00, 0.00, 0.00, 0.000, 0.000, 0.000, 11:31:02.818, 1561476662818
249, -36985.79, -15721.64, 0.00, 0.00, 0.00, 0.00, 0.00, 0.00, 0.000, 0.000, 0.000, 11:31:02.818, 1561476662818
250, -38282.90, -16997.12, 0.00, 0.00, 0.00, 0.00, 0.00, 0.00, 0.000, 0.000, 0.000, 11:31:02.818, 1561476662818
251, -38891.41, -17596.50, 0.00, 0.00, 0.00, 0.00, 0.00, 0.00, 0.000, 0.000, 0.000, 11:31:02.818, 1561476662818
252, -37661.77, -16393.78, 0.00, 0.00, 0.00, 0.00, 0.00, 0.00, 0.072, -0.038, 1.030, 11:31:02.818, 1561476662818
253, -36876.40, -15619.89, 0.00, 0.00, 0.00, 0.00, 0.00, 0.00, 0.000, 0.000, 0.000, 11:31:02.819, 1561476662819
254, -38003.26, -16718.57, 0.00, 0.00, 0.00, 0.00, 0.00, 0.00, 0.000, 0.000, 0.000, 11:31:02.819, 1561476662819
255, -38923.06, -17622.03, 0.00, 0.00, 0.00, 0.00, 0.00, 0.00, 0.000, 0.000, 0.000, 11:31:02.819, 1561476662819
0, -37916.40, -16640.07, 0.00, 0.00, 0.00, 0.00, 0.00, 0.00, 0.000, 0.000, 0.000, 11:31:02.819, 1561476662819
1, -36866.70, -15612.51, 0.00, 0.00, 0.00, 0.00, 0.00, 0.00, 0.000, 0.000, 0.000, 11:31:02.819, 1561476662819
2, -37750.33, -16474.98, 0.00, 0.00, 0.00, 0.00, 0.00, 0.00, 0.000, 0.000, 0.000, 11:31:02.819, 1561476662819
3, -38901.46, -17602.58, 0.00, 0.00, 0.00, 0.00, 0.00, 0.00, 0.000, 0.000, 0.000, 11:31:02.819, 1561476662819
4, -38157.98, -16874.58, 0.00, 0.00, 0.00, 0.00, 0.00, 0.00, 0.000, 0.000, 0.000, 11:31:02.819, 1561476662819
5, -36926.55, -15662.65, 0.00, 0.00, 0.00, 0.00, 0.00, 0.00, 0.000, 0.000, 0.000, 11:31:02.819, 1561476662819
6, -37509.64, -16243.48, 0.00, 0.00, 0.00, 0.00, 0.00, 0.00, 0.000, 0.000, 0.000, 11:31:02.819, 1561476662819
7, -38814.36, -17521.00, 0.00, 0.00, 0.00, 0.00, 0.00, 0.00, 0.076, -0.042, 1.032, 11:31:02.819, 1561476662819
8, -38382.66, -17092.02, 0.00, 0.00, 0.00, 0.00, 0.00, 0.00, 0.000, 0.000, 0.000, 11:31:02.819, 1561476662819
9, -37033.93, -15769.45, 0.00, 0.00, 0.00, 0.00, 0.00, 0.00, 0.000, 0.000, 0.000, 11:31:02.819, 1561476662819
10, -37313.29, -16045.58, 0.00, 0.00, 0.00, 0.00, 0.00, 0.00, 0.000, 0.000, 0.000, 11:31:02.820, 1561476662820
11, -38707.43, -17410.82, 0.00, 0.00, 0.00, 0.00, 0.00, 0.00, 0.000, 0.000, 0.000, 11:31:02.820, 1561476662820
12, -38627.48, -17336.15, 0.00, 0.00, 0.00, 0.00, 0.00, 0.00, 0.000, 0.000, 0.000, 11:31:02.820, 1561476662820
13, -37239.95, -15977.74, 0.00, 0.00, 0.00, 0.00, 0.00, 0.00, 0.000, 0.000, 0.000, 11:31:02.820, 1561476662820
14, -37139.88, -15876.18, 0.00, 0.00, 0.00, 0.00, 0.00, 0.00, 0.000, 0.000, 0.000, 11:31:02.820, 1561476662820
15, -38491.31, -17201.99, 0.00, 0.00, 0.00, 0.00, 0.00, 0.00, 0.000, 0.000, 0.000, 11:31:02.820, 1561476662820
16, -38764.59, -17471.17, 0.00, 0.00, 0.00, 0.00, 0.00, 0.00, 0.000, 0.000, 0.000, 11:31:02.820, 1561476662820
17, -37445.96, -16179.62, 0.00, 0.00, 0.00, 0.00, 0.00, 0.00, 0.078, -0.042, 1.030, 11:31:02.820, 1561476662820
18, -36995.22, -15732.90, 0.00, 0.00, 0.00, 0.00, 0.00, 0.00, 0.000, 0.000, 0.000, 11:31:02.820, 1561476662820
19, -38273.79, -16989.94, 0.00, 0.00, 0.00, 0.00, 0.00, 0.00, 0.000, 0.000, 0.000, 11:31:02.820, 1561476662820
20, -38903.68, -17608.55, 0.00, 0.00, 0.00, 0.00, 0.00, 0.00, 0.000, 0.000, 0.000, 11:31:02.820, 1561476662820
21, -37676.14, -16406.45, 0.00, 0.00, 0.00, 0.00, 0.00, 0.00, 0.000, 0.000, 0.000, 11:31:02.820, 1561476662820
22, -36862.68, -15611.20, 0.00, 0.00, 0.00, 0.00, 0.00, 0.00, 0.000, 0.000, 0.000, 11:31:02.821, 1561476662821
23, -37989.40, -16711.57, 0.00, 0.00, 0.00, 0.00, 0.00, 0.00, 0.000, 0.000, 0.000, 11:31:02.821, 1561476662821
24, -38964.99, -17669.08, 0.00, 0.00, 0.00, 0.00, 0.00, 0.00, 0.000, 0.000, 0.000, 11:31:02.821, 1561476662821
25, -37962.96, -16682.98, 0.00, 0.00, 0.00, 0.00, 0.00, 0.00, 0.000, 0.000, 0.000, 11:31:02.821, 1561476662821
26, -36906.33, -15640.95, 0.00, 0.00, 0.00, 0.00, 0.00, 0.00, 0.000, 0.000, 0.000, 11:31:02.821, 1561476662821
27, -37784.68, -16512.62, 0.00, 0.00, 0.00, 0.00, 0.00, 0.00, 0.080, -0.038, 1.028, 11:31:02.821, 1561476662821
28, -38936.29, -17646.25, 0.00, 0.00, 0.00, 0.00, 0.00, 0.00, 0.000, 0.000, 0.000, 11:31:02.821, 1561476662821
29, -38202.33, -16920.78, 0.00, 0.00, 0.00, 0.00, 0.00, 0.00, 0.000, 0.000, 0.000, 11:31:02.821, 1561476662821
30, -36951.37, -15692.09, 0.00, 0.00, 0.00, 0.00, 0.00, 0.00, 0.000, 0.000, 0.000, 11:31:02.821, 1561476662821
31, -37534.10, -16266.12, 0.00, 0.00, 0.00, 0.00, 0.00, 0.00, 0.000, 0.000, 0.000, 11:31:02.821, 1561476662821
32, -38864.50, -17575.06, 0.00, 0.00, 0.00, 0.00, 0.00, 0.00, 0.000, 0.000, 0.000, 11:31:02.821, 1561476662821
33, -38441.56, -17157.24, 0.00, 0.00, 0.00, 0.00, 0.00, 0.00, 0.000, 0.000, 0.000, 11:31:02.821, 1561476662821
34, -37067.66, -15804.34, 0.00, 0.00, 0.00, 0.00, 0.00, 0.00, 0.000, 0.000, 0.000, 11:31:02.821, 1561476662821
35, -37310.25, -16040.35, 0.00, 0.00, 0.00, 0.00, 0.00, 0.00, 0.000, 0.000, 0.000, 11:31:02.822, 1561476662822
36, -38693.17, -17404.21, 0.00, 0.00, 0.00, 0.00, 0.00, 0.00, 0.000, 0.000, 0.000, 11:31:02.822, 1561476662822
37, -38646.81, -17365.05, 0.00, 0.00, 0.00, 0.00, 0.00, 0.00, 0.080, -0.036, 1.024, 11:31:02.822, 1561476662822
38, -37273.75, -16013.30, 0.00, 0.00, 0.00, 0.00, 0.00, 0.00, 0.000, 0.000, 0.000, 11:31:02.822, 1561476662822
39, -37134.54, -15871.71, 0.00, 0.00, 0.00, 0.00, 0.00, 0.00, 0.000, 0.000, 0.000, 11:31:02.822, 1561476662822
40, -38505.46, -17216.25, 0.00, 0.00, 0.00, 0.00, 0.00, 0.00, 0.000, 0.000, 0.000, 11:31:02.822, 1561476662822
41, -38809.78, -17516.90, 0.00, 0.00, 0.00, 0.00, 0.00, 0.00, 0.000, 0.000, 0.000, 11:31:02.822, 1561476662822
42, -37474.93, -16206.78, 0.00, 0.00, 0.00, 0.00, 0.00, 0.00, 0.000, 0.000, 0.000, 11:31:02.822, 1561476662822
43, -36980.60, -15719.80, 0.00, 0.00, 0.00, 0.00, 0.00, 0.00, 0.000, 0.000, 0.000, 11:31:02.822, 1561476662822
44, -38271.37, -16983.26, 0.00, 0.00, 0.00, 0.00, 0.00, 0.00, 0.000, 0.000, 0.000, 11:31:02.822, 1561476662822
45, -38940.58, -17648.20, 0.00, 0.00, 0.00, 0.00, 0.00, 0.00, 0.000, 0.000, 0.000, 11:31:02.822, 1561476662822
46, -37747.60, -16481.28, 0.00, 0.00, 0.00, 0.00, 0.00, 0.00, 0.000, 0.000, 0.000, 11:31:02.822, 1561476662822
47, -36925.21, -15668.93, 0.00, 0.00, 0.00, 0.00, 0.00, 0.00, 0.076, -0.038, 1.032, 11:31:02.822, 1561476662822
48, -38007.62, -16732.98, 0.00, 0.00, 0.00, 0.00, 0.00, 0.00, 0.000, 0.000, 0.000, 11:31:02.822, 1561476662822
49, -38968.45, -17681.48, 0.00, 0.00, 0.00, 0.00, 0.00, 0.00, 0.000, 0.000, 0.000, 11:31:02.823, 1561476662823
50, -37988.80, -16720.78, 0.00, 0.00, 0.00, 0.00, 0.00, 0.00, 0.000, 0.000, 0.000, 11:31:02.823, 1561476662823
51, -36919.65, -15668.06, 0.00, 0.00, 0.00, 0.00, 0.00, 0.00, 0.000, 0.000, 0.000, 11:31:02.823, 1561476662823
52, -37783.28, -16511.37, 0.00, 0.00, 0.00, 0.00, 0.00, 0.00, 0.000, 0.000, 0.000, 11:31:02.823, 1561476662823
53, -38963.09, -17666.21, 0.00, 0.00, 0.00, 0.00, 0.00, 0.00, 0.000, 0.000, 0.000, 11:31:02.823, 1561476662823
54, -38254.03, -16974.67, 0.00, 0.00, 0.00, 0.00, 0.00, 0.00, 0.000, 0.000, 0.000, 11:31:02.823, 1561476662823
55, -36987.55, -15733.59, 0.00, 0.00, 0.00, 0.00, 0.00, 0.00, 0.000, 0.000, 0.000, 11:31:02.823, 1561476662823
56, -37541.47, -16276.36, 0.00, 0.00, 0.00, 0.00, 0.00, 0.00, 0.000, 0.000, 0.000, 11:31:02.823, 1561476662823
57, -38865.21, -17579.63, 0.00, 0.00, 0.00, 0.00, 0.00, 0.00, 0.000, 0.000, 0.000, 11:31:02.823, 1561476662823
58, -38467.98, -17192.63, 0.00, 0.00, 0.00, 0.00, 0.00, 0.00, 0.076, -0.038, 1.026, 11:31:02.823, 1561476662823
59, -37097.61, -15846.74, 0.00, 0.00, 0.00, 0.00, 0.00, 0.00, 0.000, 0.000, 0.000, 11:31:02.823, 1561476662823
60, -37321.18, -16058.28, 0.00, 0.00, 0.00, 0.00, 0.00, 0.00, 0.000, 0.000, 0.000, 11:31:02.823, 1561476662823
61, -38708.75, -17416.05, 0.00, 0.00, 0.00, 0.00, 0.00, 0.00, 0.000, 0.000, 0.000, 11:31:02.824, 1561476662824
62, -38680.96, -17390.37, 0.00, 0.00, 0.00, 0.00, 0.00, 0.00, 0.000, 0.000, 0.000, 11:31:02.824, 1561476662824
63, -37315.14, -16051.79, 0.00, 0.00, 0.00, 0.00, 0.00, 0.00, 0.000, 0.000, 0.000, 11:31:02.824, 1561476662824
64, -37162.72, -15903.31, 0.00, 0.00, 0.00, 0.00, 0.00, 0.00, 0.000, 0.000, 0.000, 11:31:02.824, 1561476662824
65, -38512.64, -17228.12, 0.00, 0.00, 0.00, 0.00, 0.00, 0.00, 0.000, 0.000, 0.000, 11:31:02.824, 1561476662824
66, -38836.11, -17547.91, 0.00, 0.00, 0.00, 0.00, 0.00, 0.00, 0.000, 0.000, 0.000, 11:31:02.824, 1561476662824
67, -37517.60, -16253.81, 0.00, 0.00, 0.00, 0.00, 0.00, 0.00, 0.000, 0.000, 0.000, 11:31:02.824, 1561476662824
68, -37020.12, -15761.62, 0.00, 0.00, 0.00, 0.00, 0.00, 0.00, 0.078, -0.034, 1.030, 11:31:02.825, 1561476662825
69, -38275.26, -16991.01, 0.00, 0.00, 0.00, 0.00, 0.00, 0.00, 0.000, 0.000, 0.000, 11:31:02.825, 1561476662825
70, -38947.60, -17658.23, 0.00, 0.00, 0.00, 0.00, 0.00, 0.00, 0.000, 0.000, 0.000, 11:31:02.825, 1561476662825
71, -37770.47, -16505.24, 0.00, 0.00, 0.00, 0.00, 0.00, 0.00, 0.000, 0.000, 0.000, 11:31:02.825, 1561476662825
72, -36928.05, -15676.69, 0.00, 0.00, 0.00, 0.00, 0.00, 0.00, 0.000, 0.000, 0.000, 11:31:02.825, 1561476662825
73, -37985.27, -16712.82, 0.00, 0.00, 0.00, 0.00, 0.00, 0.00, 0.000, 0.000, 0.000, 11:31:02.825, 1561476662825
74, -38931.89, -17644.49, 0.00, 0.00, 0.00, 0.00, 0.00, 0.00, 0.000, 0.000, 0.000, 11:31:02.825, 1561476662825
75, -37940.41, -16675.72, 0.00, 0.00, 0.00, 0.00, 0.00, 0.00, 0.000, 0.000, 0.000, 11:31:02.825, 1561476662825
76, -36894.13, -15649.73, 0.00, 0.00, 0.00, 0.00, 0.00, 0.00, 0.000, 0.000, 0.000, 11:31:02.825, 1561476662825
77, -37795.26, -16525.67, 0.00, 0.00, 0.00, 0.00, 0.00, 0.00, 0.000, 0.000, 0.000, 11:31:02.826, 1561476662826
78, -39043.51, -17746.14, 0.00, 0.00, 0.00, 0.00, 0.00, 0.00, 0.082, -0.030, 1.030, 11:31:02.826, 1561476662826
79, -38370.50, -17090.08, 0.00, 0.00, 0.00, 0.00, 0.00, 0.00, 0.000, 0.000, 0.000, 11:31:02.828, 1561476662828
80, -37080.65, -15824.90, 0.00, 0.00, 0.00, 0.00, 0.00, 0.00, 0.000, 0.000, 0.000, 11:31:02.828, 1561476662828
81, -37574.11, -16303.54, 0.00, 0.00, 0.00, 0.00, 0.00, 0.00, 0.000, 0.000, 0.000, 11:31:02.828, 1561476662828
82, -38876.43, -17580.29, 0.00, 0.00, 0.00, 0.00, 0.00, 0.00, 0.000, 0.000, 0.000, 11:31:02.828, 1561476662828
83, -38496.83, -17209.99, 0.00, 0.00, 0.00, 0.00, 0.00, 0.00, 0.000, 0.000, 0.000, 11:31:02.828, 1561476662828
84, -37131.03, -15869.00, 0.00, 0.00, 0.00, 0.00, 0.00, 0.00, 0.000, 0.000, 0.000, 11:31:02.828, 1561476662828
85, -37335.28, -16075.93, 0.00, 0.00, 0.00, 0.00, 0.00, 0.00, 0.000, 0.000, 0.000, 11:31:02.828, 1561476662828
86, -38750.61, -17462.99, 0.00, 0.00, 0.00, 0.00, 0.00, 0.00, 0.000, 0.000, 0.000, 11:31:02.829, 1561476662829
87, -38762.75, -17472.74, 0.00, 0.00, 0.00, 0.00, 0.00, 0.00, 0.000, 0.000, 0.000, 11:31:02.829, 1561476662829
88, -37327.30, -16068.65, 0.00, 0.00, 0.00, 0.00, 0.00, 0.00, 0.078, -0.032, 1.024, 11:31:02.829, 1561476662829
89, -37112.52, -15855.19, 0.00, 0.00, 0.00, 0.00, 0.00, 0.00, 0.000, 0.000, 0.000, 11:31:02.829, 1561476662829
90, -38516.14, -17230.96, 0.00, 0.00, 0.00, 0.00, 0.00, 0.00, 0.000, 0.000, 0.000, 11:31:02.829, 1561476662829
91, -38917.56, -17622.49, 0.00, 0.00, 0.00, 0.00, 0.00, 0.00, 0.000, 0.000, 0.000, 11:31:02.829, 1561476662829
92, -37573.57, -16304.50, 0.00, 0.00, 0.00, 0.00, 0.00, 0.00, 0.000, 0.000, 0.000, 11:31:02.829, 1561476662829
93, -36984.36, -15727.13, 0.00, 0.00, 0.00, 0.00, 0.00, 0.00, 0.000, 0.000, 0.000, 11:31:02.829, 1561476662829
94, -38268.04, -16993.61, 0.00, 0.00, 0.00, 0.00, 0.00, 0.00, 0.000, 0.000, 0.000, 11:31:02.829, 1561476662829
95, -39036.94, -17745.41, 0.00, 0.00, 0.00, 0.00, 0.00, 0.00, 0.000, 0.000, 0.000, 11:31:02.829, 1561476662829
96, -37840.56, -16572.63, 0.00, 0.00, 0.00, 0.00, 0.00, 0.00, 0.000, 0.000, 0.000, 11:31:02.830, 1561476662830
97, -36923.00, -15672.13, 0.00, 0.00, 0.00, 0.00, 0.00, 0.00, 0.000, 0.000, 0.000, 11:31:02.830, 1561476662830
98, -38012.83, -16741.03, 0.00, 0.00, 0.00, 0.00, 0.00, 0.00, 0.080, -0.034, 1.026, 11:31:02.830, 1561476662830
99, -39057.14, -17771.85, 0.00, 0.00, 0.00, 0.00, 0.00, 0.00, 0.000, 0.000, 0.000, 11:31:02.830, 1561476662830
100, -38081.49, -16809.23, 0.00, 0.00, 0.00, 0.00, 0.00, 0.00, 0.000, 0.000, 0.000, 11:31:02.830, 1561476662830
101, -36904.23, -15654.31, 0.00, 0.00, 0.00, 0.00, 0.00, 0.00, 0.000, 0.000, 0.000, 11:31:02.830, 1561476662830
102, -37742.98, -16474.73, 0.00, 0.00, 0.00, 0.00, 0.00, 0.00, 0.000, 0.000, 0.000, 11:31:02.832, 1561476662832
103, -39026.41, -17733.11, 0.00, 0.00, 0.00, 0.00, 0.00, 0.00, 0.000, 0.000, 0.000, 11:31:02.832, 1561476662832
104, -38368.46, -17089.90, 0.00, 0.00, 0.00, 0.00, 0.00, 0.00, 0.000, 0.000, 0.000, 11:31:02.832, 1561476662832
105, -37006.89, -15752.50, 0.00, 0.00, 0.00, 0.00, 0.00, 0.00, 0.000, 0.000, 0.000, 11:31:02.832, 1561476662832
106, -37518.16, -16251.84, 0.00, 0.00, 0.00, 0.00, 0.00, 0.00, 0.000, 0.000, 0.000, 11:31:02.832, 1561476662832
107, -38937.68, -17650.59, 0.00, 0.00, 0.00, 0.00, 0.00, 0.00, 0.000, 0.000, 0.000, 11:31:03.298, 1561476663298
108, -38611.79, -17333.64, 0.00, 0.00, 0.00, 0.00, 0.00, 0.00, 0.074, -0.030, 1.032, 11:31:03.298, 1561476663298
109, -37155.04, -15904.16, 0.00, 0.00, 0.00, 0.00, 0.00, 0.00, 0.000, 0.000, 0.000, 11:31:03.298, 1561476663298
110, -37297.10, -16034.36, 0.00, 0.00, 0.00, 0.00, 0.00, 0.00, 0.000, 0.000, 0.000, 11:31:03.298, 1561476663298
111, -38754.10, -17467.13, 0.00, 0.00, 0.00, 0.00, 0.00, 0.00, 0.000, 0.000, 0.000, 11:31:03.298, 1561476663298
112, -38789.13, -17508.90, 0.00, 0.00, 0.00, 0.00, 0.00, 0.00, 0.000, 0.000, 0.000, 11:31:03.298, 1561476663298
113, -37341.65, -16088.32, 0.00, 0.00, 0.00, 0.00, 0.00, 0.00, 0.000, 0.000, 0.000, 11:31:03.298, 1561476663298
114, -37108.45, -15849.73, 0.00, 0.00, 0.00, 0.00, 0.00, 0.00, 0.000, 0.000, 0.000, 11:31:03.298, 1561476663298
115, -38527.63, -17246.31, 0.00, 0.00, 0.00, 0.00, 0.00, 0.00, 0.000, 0.000, 0.000, 11:31:03.298, 1561476663298
116, -38957.77, -17674.31, 0.00, 0.00, 0.00, 0.00, 0.00, 0.00, 0.000, 0.000, 0.000, 11:31:03.299, 1561476663299
117, -37589.57, -16333.13, 0.00, 0.00, 0.00, 0.00, 0.00, 0.00, 0.000, 0.000, 0.000, 11:31:03.299, 1561476663299
118, -36977.14, -15726.15, 0.00, 0.00, 0.00, 0.00, 0.00, 0.00, 0.000, 0.000, 0.000, 11:31:03.299, 1561476663299
119, -38271.10, -16994.97, 0.00, 0.00, 0.00, 0.00, 0.00, 0.00, 0.076, -0.034, 1.036, 11:31:03.299, 1561476663299
120, -39050.44, -17767.56, 0.00, 0.00, 0.00, 0.00, 0.00, 0.00, 0.000, 0.000, 0.000, 11:31:03.299, 1561476663299
121, -37849.77, -16591.28, 0.00, 0.00, 0.00, 0.00, 0.00, 0.00, 0.000, 0.000, 0.000, 11:31:03.299, 1561476663299
122, -36914.66, -15671.01, 0.00, 0.00, 0.00, 0.00, 0.00, 0.00, 0.000, 0.000, 0.000, 11:31:03.299, 1561476663299
123, -38027.04, -16755.00, 0.00, 0.00, 0.00, 0.00, 0.00, 0.00, 0.000, 0.000, 0.000, 11:31:03.299, 1561476663299
124, -39128.02, -17832.09, 0.00, 0.00, 0.00, 0.00, 0.00, 0.00, 0.000, 0.000, 0.000, 11:31:03.299, 1561476663299
125, -38159.28, -16889.98, 0.00, 0.00, 0.00, 0.00, 0.00, 0.00, 0.000, 0.000, 0.000, 11:31:03.299, 1561476663299
126, -36949.60, -15704.96, 0.00, 0.00, 0.00, 0.00, 0.00, 0.00, 0.000, 0.000, 0.000, 11:31:03.299, 1561476663299
127, -37773.38, -16511.97, 0.00, 0.00, 0.00, 0.00, 0.00, 0.00, 0.000, 0.000, 0.000, 11:31:03.299, 1561476663299
128, -39065.77, -17780.39, 0.00, 0.00, 0.00, 0.00, 0.00, 0.00, 0.000, 0.000, 0.000, 11:31:03.299, 1561476663299
129, -38391.64, -17120.29, 0.00, 0.00, 0.00, 0.00, 0.00, 0.00, 0.074, -0.038, 1.040, 11:31:03.299, 1561476663299
130, -37006.98, -15755.43, 0.00, 0.00, 0.00, 0.00, 0.00, 0.00, 0.000, 0.000, 0.000, 11:31:03.299, 1561476663299
131, -37521.69, -16258.21, 0.00, 0.00, 0.00, 0.00, 0.00, 0.00, 0.000, 0.000, 0.000, 11:31:03.299, 1561476663299
132, -38956.34, -17671.69, 0.00, 0.00, 0.00, 0.00, 0.00, 0.00, 0.000, 0.000, 0.000, 11:31:03.299, 1561476663299
133, -38634.52, -17358.34, 0.00, 0.00, 0.00, 0.00, 0.00, 0.00, 0.000, 0.000, 0.000, 11:31:03.299, 1561476663299
134, -37169.50, -15920.79, 0.00, 0.00, 0.00, 0.00, 0.00, 0.00, 0.000, 0.000, 0.000, 11:31:03.299, 1561476663299
135, -37298.15, -16046.56, 0.00, 0.00, 0.00, 0.00, 0.00, 0.00, 0.000, 0.000, 0.000, 11:31:03.299, 1561476663299
136, -38780.10, -17497.62, 0.00, 0.00, 0.00, 0.00, 0.00, 0.00, 0.000, 0.000, 0.000, 11:31:03.299, 1561476663299
137, -38849.19, -17569.65, 0.00, 0.00, 0.00, 0.00, 0.00, 0.00, 0.000, 0.000, 0.000, 11:31:03.299, 1561476663299
138, -37396.50, -16141.40, 0.00, 0.00, 0.00, 0.00, 0.00, 0.00, 0.000, 0.000, 0.000, 11:31:03.299, 1561476663299
139, -37129.75, -15875.26, 0.00, 0.00, 0.00, 0.00, 0.00, 0.00, 0.076, -0.030, 1.032, 11:31:03.299, 1561476663299
140, -38575.78, -17289.61, 0.00, 0.00, 0.00, 0.00, 0.00, 0.00, 0.000, 0.000, 0.000, 11:31:03.299, 1561476663299
141, -39037.50, -17748.63, 0.00, 0.00, 0.00, 0.00, 0.00, 0.00, 0.000, 0.000, 0.000, 11:31:03.300, 1561476663300
142, -37658.66, -16399.68, 0.00, 0.00, 0.00, 0.00, 0.00, 0.00, 0.000, 0.000, 0.000, 11:31:03.300, 1561476663300
143, -37007.63, -15755.63, 0.00, 0.00, 0.00, 0.00, 0.00, 0.00, 0.000, 0.000, 0.000, 11:31:03.300, 1561476663300
144, -38289.50, -17011.85, 0.00, 0.00, 0.00, 0.00, 0.00, 0.00, 0.000, 0.000, 0.000, 11:31:03.300, 1561476663300
145, -39103.64, -17808.73, 0.00, 0.00, 0.00, 0.00, 0.00, 0.00, 0.000, 0.000, 0.000, 11:31:03.300, 1561476663300
146, -37908.54, -16634.66, 0.00, 0.00, 0.00, 0.00, 0.00, 0.00, 0.000, 0.000, 0.000, 11:31:03.300, 1561476663300
147, -36949.54, -15695.08, 0.00, 0.00, 0.00, 0.00, 0.00, 0.00, 0.000, 0.000, 0.000, 11:31:03.300, 1561476663300
148, -38049.89, -16776.39, 0.00, 0.00, 0.00, 0.00, 0.00, 0.00, 0.000, 0.000, 0.000, 11:31:03.300, 1561476663300
149, -39146.98, -17858.17, 0.00, 0.00, 0.00, 0.00, 0.00, 0.00, 0.074, -0.032, 1.036, 11:31:03.300, 1561476663300
150, -38181.23, -16913.52, 0.00, 0.00, 0.00, 0.00, 0.00, 0.00, 0.000, 0.000, 0.000, 11:31:03.300, 1561476663300
151, -36963.66, -15718.42, 0.00, 0.00, 0.00, 0.00, 0.00, 0.00, 0.000, 0.000, 0.000, 11:31:03.300, 1561476663300
152, -37790.41, -16525.09, 0.00, 0.00, 0.00, 0.00, 0.00, 0.00, 0.000, 0.000, 0.000, 11:31:03.300, 1561476663300
153, -39113.03, -17821.36, 0.00, 0.00, 0.00, 0.00, 0.00, 0.00, 0.000, 0.000, 0.000, 11:31:03.300, 1561476663300
154, -38445.63, -17166.70, 0.00, 0.00, 0.00, 0.00, 0.00, 0.00, 0.000, 0.000, 0.000, 11:31:03.300, 1561476663300
155, -37040.73, -15791.08, 0.00, 0.00, 0.00, 0.00, 0.00, 0.00, 0.000, 0.000, 0.000, 11:31:03.300, 1561476663300
156, -37526.39, -16266.86, 0.00, 0.00, 0.00, 0.00, 0.00, 0.00, 0.000, 0.000, 0.000, 11:31:03.300, 1561476663300
157, -38979.56, -17692.52, 0.00, 0.00, 0.00, 0.00, 0.00, 0.00, 0.000, 0.000, 0.000, 11:31:03.300, 1561476663300
158, -38697.89, -17416.68, 0.00, 0.00, 0.00, 0.00, 0.00, 0.00, 0.000, 0.000, 0.000, 11:31:03.300, 1561476663300
159, -37227.05, -15974.28, 0.00, 0.00, 0.00, 0.00, 0.00, 0.00, 0.072, -0.042, 1.038, 11:31:03.300, 1561476663300
160, -37319.63, -16065.18, 0.00, 0.00, 0.00, 0.00, 0.00, 0.00, 0.000, 0.000, 0.000, 11:31:03.300, 1561476663300
161, -38793.78, -17508.37, 0.00, 0.00, 0.00, 0.00, 0.00, 0.00, 0.000, 0.000, 0.000, 11:31:03.300, 1561476663300
162, -38883.00, -17594.64, 0.00, 0.00, 0.00, 0.00, 0.00, 0.00, 0.000, 0.000, 0.000, 11:31:03.300, 1561476663300
163, -37417.91, -16167.78, 0.00, 0.00, 0.00, 0.00, 0.00, 0.00, 0.000, 0.000, 0.000, 11:31:03.300, 1561476663300
164, -37131.99, -15881.34, 0.00, 0.00, 0.00, 0.00, 0.00, 0.00, 0.000, 0.000, 0.000, 11:31:03.300, 1561476663300
165, -38561.21, -17276.42, 0.00, 0.00, 0.00, 0.00, 0.00, 0.00, 0.000, 0.000, 0.000, 11:31:03.301, 1561476663301
166, -39059.31, -17768.50, 0.00, 0.00, 0.00, 0.00, 0.00, 0.00, 0.000, 0.000, 0.000, 11:31:03.301, 1561476663301
167, -37701.63, -16444.20, 0.00, 0.00, 0.00, 0.00, 0.00, 0.00, 0.000, 0.000, 0.000, 11:31:03.301, 1561476663301
168, -37028.34, -15781.27, 0.00, 0.00, 0.00, 0.00, 0.00, 0.00, 0.000, 0.000, 0.000, 11:31:03.301, 1561476663301
169, -38319.81, -17042.62, 0.00, 0.00, 0.00, 0.00, 0.00, 0.00, 0.000, 0.000, 0.000, 11:31:03.301, 1561476663301
170, -39156.59, -17859.76, 0.00, 0.00, 0.00, 0.00, 0.00, 0.00, 0.076, -0.034, 1.038, 11:31:03.301, 1561476663301
171, -37959.09, -16687.39, 0.00, 0.00, 0.00, 0.00, 0.00, 0.00, 0.000, 0.000, 0.000, 11:31:03.301, 1561476663301
172, -36970.03, -15716.34, 0.00, 0.00, 0.00, 0.00, 0.00, 0.00, 0.000, 0.000, 0.000, 11:31:03.301, 1561476663301
173, -38058.00, -16784.80, 0.00, 0.00, 0.00, 0.00, 0.00, 0.00, 0.000, 0.000, 0.000, 11:31:03.301, 1561476663301
174, -39182.43, -17888.19, 0.00, 0.00, 0.00, 0.00, 0.00, 0.00, 0.000, 0.000, 0.000, 11:31:03.301, 1561476663301
175, -38212.94, -16939.63, 0.00, 0.00, 0.00, 0.00, 0.00, 0.00, 0.000, 0.000, 0.000, 11:31:03.301, 1561476663301
176, -36962.50, -15715.09, 0.00, 0.00, 0.00, 0.00, 0.00, 0.00, 0.000, 0.000, 0.000, 11:31:03.301, 1561476663301
177, -37788.26, -16524.87, 0.00, 0.00, 0.00, 0.00, 0.00, 0.00, 0.000, 0.000, 0.000, 11:31:03.301, 1561476663301
178, -39155.83, -17860.96, 0.00, 0.00, 0.00, 0.00, 0.00, 0.00, 0.000, 0.000, 0.000, 11:31:03.301, 1561476663301
179, -38543.70, -17258.38, 0.00, 0.00, 0.00, 0.00, 0.00, 0.00, 0.000, 0.000, 0.000, 11:31:03.301, 1561476663301
180, -37127.05, -15867.12, 0.00, 0.00, 0.00, 0.00, 0.00, 0.00, 0.070, -0.032, 1.034, 11:31:03.301, 1561476663301
181, -37552.32, -16278.13, 0.00, 0.00, 0.00, 0.00, 0.00, 0.00, 0.000, 0.000, 0.000, 11:31:03.301, 1561476663301
182, -39007.68, -17704.86, 0.00, 0.00, 0.00, 0.00, 0.00, 0.00, 0.000, 0.000, 0.000, 11:31:03.301, 1561476663301
183, -38779.29, -17485.26, 0.00, 0.00, 0.00, 0.00, 0.00, 0.00, 0.000, 0.000, 0.000, 11:31:03.301, 1561476663301
184, -37301.39, -16042.90, 0.00, 0.00, 0.00, 0.00, 0.00, 0.00, 0.000, 0.000, 0.000, 11:31:03.301, 1561476663301
185, -37336.26, -16076.67, 0.00, 0.00, 0.00, 0.00, 0.00, 0.00, 0.000, 0.000, 0.000, 11:31:03.301, 1561476663301
186, -38810.90, -17524.08, 0.00, 0.00, 0.00, 0.00, 0.00, 0.00, 0.000, 0.000, 0.000, 11:31:03.301, 1561476663301
187, -38965.73, -17679.22, 0.00, 0.00, 0.00, 0.00, 0.00, 0.00, 0.000, 0.000, 0.000, 11:31:03.301, 1561476663301
188, -37513.60, -16252.91, 0.00, 0.00, 0.00, 0.00, 0.00, 0.00, 0.000, 0.000, 0.000, 11:31:03.301, 1561476663301
189, -37159.80, -15897.37, 0.00, 0.00, 0.00, 0.00, 0.00, 0.00, 0.000, 0.000, 0.000, 11:31:03.301, 1561476663301
190, -38560.22, -17269.61, 0.00, 0.00, 0.00, 0.00, 0.00, 0.00, 0.074, -0.034, 1.036, 11:31:03.302, 1561476663302
191, -39086.67, -17792.90, 0.00, 0.00, 0.00, 0.00, 0.00, 0.00, 0.000, 0.000, 0.000, 11:31:03.302, 1561476663302
192, -37747.07, -16481.73, 0.00, 0.00, 0.00, 0.00, 0.00, 0.00, 0.000, 0.000, 0.000, 11:31:03.302, 1561476663302
193, -37038.70, -15780.64, 0.00, 0.00, 0.00, 0.00, 0.00, 0.00, 0.000, 0.000, 0.000, 11:31:03.302, 1561476663302
194, -38292.65, -17006.99, 0.00, 0.00, 0.00, 0.00, 0.00, 0.00, 0.000, 0.000, 0.000, 11:31:03.302, 1561476663302
195, -39183.81, -17884.59, 0.00, 0.00, 0.00, 0.00, 0.00, 0.00, 0.000, 0.000, 0.000, 11:31:03.302, 1561476663302
196, -38037.66, -16762.31, 0.00, 0.00, 0.00, 0.00, 0.00, 0.00, 0.000, 0.000, 0.000, 11:31:03.302, 1561476663302
197, -37008.12, -15751.21, 0.00, 0.00, 0.00, 0.00, 0.00, 0.00, 0.000, 0.000, 0.000, 11:31:03.302, 1561476663302
198, -38045.06, -16765.69, 0.00, 0.00, 0.00, 0.00, 0.00, 0.00, 0.000, 0.000, 0.000, 11:31:03.302, 1561476663302
199, -39200.36, -17903.26, 0.00, 0.00, 0.00, 0.00, 0.00, 0.00, 0.000, 0.000, 0.000, 11:31:03.302, 1561476663302
200, -38308.34, -17032.63, 0.00, 0.00, 0.00, 0.00, 0.00, 0.00, 0.070, -0.038, 1.032, 11:31:03.302, 1561476663302
201, -37037.00, -15783.21, 0.00, 0.00, 0.00, 0.00, 0.00, 0.00, 0.000, 0.000, 0.000, 11:31:03.302, 1561476663302
202, -37781.78, -16509.51, 0.00, 0.00, 0.00, 0.00, 0.00, 0.00, 0.000, 0.000, 0.000, 11:31:03.302, 1561476663302
203, -39140.12, -17838.99, 0.00, 0.00, 0.00, 0.00, 0.00, 0.00, 0.000, 0.000, 0.000, 11:31:03.302, 1561476663302
204, -38563.35, -17275.62, 0.00, 0.00, 0.00, 0.00, 0.00, 0.00, 0.000, 0.000, 0.000, 11:31:03.302, 1561476663302
205, -37140.46, -15882.23, 0.00, 0.00, 0.00, 0.00, 0.00, 0.00, 0.000, 0.000, 0.000, 11:31:03.303, 1561476663303
206, -37533.45, -16266.79, 0.00, 0.00, 0.00, 0.00, 0.00, 0.00, 0.000, 0.000, 0.000, 11:31:03.303, 1561476663303
207, -38991.41, -17697.31, 0.00, 0.00, 0.00, 0.00, 0.00, 0.00, 0.000, 0.000, 0.000, 11:31:03.303, 1561476663303
208, -38798.76, -17507.14, 0.00, 0.00, 0.00, 0.00, 0.00, 0.00, 0.000, 0.000, 0.000, 11:31:03.303, 1561476663303
209, -37336.71, -16074.57, 0.00, 0.00, 0.00, 0.00, 0.00, 0.00, 0.000, 0.000, 0.000, 11:31:03.303, 1561476663303
210, -37348.76, -16082.42, 0.00, 0.00, 0.00, 0.00, 0.00, 0.00, 0.072, -0.034, 1.032, 11:31:03.303, 1561476663303
211, -38795.16, -17502.24, 0.00, 0.00, 0.00, 0.00, 0.00, 0.00, 0.000, 0.000, 0.000, 11:31:03.303, 1561476663303
212, -38983.83, -17690.94, 0.00, 0.00, 0.00, 0.00, 0.00, 0.00, 0.000, 0.000, 0.000, 11:31:03.303, 1561476663303
213, -37547.66, -16285.64, 0.00, 0.00, 0.00, 0.00, 0.00, 0.00, 0.000, 0.000, 0.000, 11:31:03.303, 1561476663303
214, -37156.85, -15899.64, 0.00, 0.00, 0.00, 0.00, 0.00, 0.00, 0.000, 0.000, 0.000, 11:31:03.303, 1561476663303
215, -38558.57, -17273.18, 0.00, 0.00, 0.00, 0.00, 0.00, 0.00, 0.000, 0.000, 0.000, 11:31:03.303, 1561476663303
216, -39129.84, -17839.40, 0.00, 0.00, 0.00, 0.00, 0.00, 0.00, 0.000, 0.000, 0.000, 11:31:03.303, 1561476663303
217, -37800.29, -16539.62, 0.00, 0.00, 0.00, 0.00, 0.00, 0.00, 0.000, 0.000, 0.000, 11:31:03.303, 1561476663303
218, -37045.45, -15796.13, 0.00, 0.00, 0.00, 0.00, 0.00, 0.00, 0.000, 0.000, 0.000, 11:31:03.303, 1561476663303
219, -38281.99, -17002.84, 0.00, 0.00, 0.00, 0.00, 0.00, 0.00, 0.000, 0.000, 0.000, 11:31:03.303, 1561476663303
220, -39196.13, -17897.98, 0.00, 0.00, 0.00, 0.00, 0.00, 0.00, 0.070, -0.034, 1.028, 11:31:03.303, 1561476663303
221, -38096.07, -16819.62, 0.00, 0.00, 0.00, 0.00, 0.00, 0.00, 0.000, 0.000, 0.000, 11:31:03.303, 1561476663303
222, -37037.71, -15785.52, 0.00, 0.00, 0.00, 0.00, 0.00, 0.00, 0.000, 0.000, 0.000, 11:31:03.303, 1561476663303
223, -38040.81, -16765.86, 0.00, 0.00, 0.00, 0.00, 0.00, 0.00, 0.000, 0.000, 0.000, 11:31:03.303, 1561476663303
224, -39230.26, -17929.32, 0.00, 0.00, 0.00, 0.00, 0.00, 0.00, 0.000, 0.000, 0.000, 11:31:03.303, 1561476663303
225, -38358.14, -17077.69, 0.00, 0.00, 0.00, 0.00, 0.00, 0.00, 0.000, 0.000, 0.000, 11:31:03.303, 1561476663303
226, -37058.21, -15805.54, 0.00, 0.00, 0.00, 0.00, 0.00, 0.00, 0.000, 0.000, 0.000, 11:31:03.304, 1561476663304
227, -37764.25, -16496.28, 0.00, 0.00, 0.00, 0.00, 0.00, 0.00, 0.000, 0.000, 0.000, 11:31:03.778, 1561476663778
228, -39127.29, -17829.45, 0.00, 0.00, 0.00, 0.00, 0.00, 0.00, 0.000, 0.000, 0.000, 11:31:03.778, 1561476663778
229, -38587.92, -17308.95, 0.00, 0.00, 0.00, 0.00, 0.00, 0.00, 0.000, 0.000, 0.000, 11:31:03.778, 1561476663778
230, -37165.61, -15913.12, 0.00, 0.00, 0.00, 0.00, 0.00, 0.00, 0.000, 0.000, 0.000, 11:31:03.779, 1561476663779
231, -37518.25, -16253.54, 0.00, 0.00, 0.00, 0.00, 0.00, 0.00, 0.066, -0.036, 1.030, 11:31:03.779, 1561476663779
232, -38952.14, -17659.62, 0.00, 0.00, 0.00, 0.00, 0.00, 0.00, 0.000, 0.000, 0.000, 11:31:03.779, 1561476663779
233, -38745.05, -17464.80, 0.00, 0.00, 0.00, 0.00, 0.00, 0.00, 0.000, 0.000, 0.000, 11:31:03.779, 1561476663779
234, -37278.55, -16031.52, 0.00, 0.00, 0.00, 0.00, 0.00, 0.00, 0.000, 0.000, 0.000, 11:31:03.780, 1561476663780
235, -37305.53, -16048.71, 0.00, 0.00, 0.00, 0.00, 0.00, 0.00, 0.000, 0.000, 0.000, 11:31:03.780, 1561476663780
236, -38808.26, -17516.82, 0.00, 0.00, 0.00, 0.00, 0.00, 0.00, 0.000, 0.000, 0.000, 11:31:03.780, 1561476663780
237, -39067.54, -17771.67, 0.00, 0.00, 0.00, 0.00, 0.00, 0.00, 0.000, 0.000, 0.000, 11:31:03.780, 1561476663780
238, -37664.30, -16401.40, 0.00, 0.00, 0.00, 0.00, 0.00, 0.00, 0.000, 0.000, 0.000, 11:31:03.780, 1561476663780
239, -37241.61, -15988.52, 0.00, 0.00, 0.00, 0.00, 0.00, 0.00, 0.000, 0.000, 0.000, 11:31:03.780, 1561476663780
240, -38587.58, -17305.57, 0.00, 0.00, 0.00, 0.00, 0.00, 0.00, 0.000, 0.000, 0.000, 11:31:03.780, 1561476663780
241, -39160.39, -17869.68, 0.00, 0.00, 0.00, 0.00, 0.00, 0.00, 0.068, -0.040, 1.030, 11:31:03.780, 1561476663780
242, -37837.86, -16573.91, 0.00, 0.00, 0.00, 0.00, 0.00, 0.00, 0.000, 0.000, 0.000, 11:31:03.780, 1561476663780
243, -37051.48, -15799.15, 0.00, 0.00, 0.00, 0.00, 0.00, 0.00, 0.000, 0.000, 0.000, 11:31:03.780, 1561476663780
244, -38282.19, -17003.02, 0.00, 0.00, 0.00, 0.00, 0.00, 0.00, 0.000, 0.000, 0.000, 11:31:03.780, 1561476663780
245, -39238.64, -17942.59, 0.00, 0.00, 0.00, 0.00, 0.00, 0.00, 0.000, 0.000, 0.000, 11:31:03.780, 1561476663780
246, -38111.76, -16837.39, 0.00, 0.00, 0.00, 0.00, 0.00, 0.00, 0.000, 0.000, 0.000, 11:31:03.781, 1561476663781
247, -37029.35, -15777.40, 0.00, 0.00, 0.00, 0.00, 0.00, 0.00, 0.000, 0.000, 0.000, 11:31:03.781, 1561476663781
248, -38012.36, -16737.57, 0.00, 0.00, 0.00, 0.00, 0.00, 0.00, 0.000, 0.000, 0.000, 11:31:03.781, 1561476663781
249, -39215.66, -17919.21, 0.00, 0.00, 0.00, 0.00, 0.00, 0.00, 0.000, 0.000, 0.000, 11:31:03.781, 1561476663781
250, -38390.39, -17113.39, 0.00, 0.00, 0.00, 0.00, 0.00, 0.00, 0.000, 0.000, 0.000, 11:31:03.781, 1561476663781
251, -37103.07, -15849.93, 0.00, 0.00, 0.00, 0.00, 0.00, 0.00, 0.074, -0.042, 1.038, 11:31:03.781, 1561476663781
252, -37802.54, -16534.28, 0.00, 0.00, 0.00, 0.00, 0.00, 0.00, 0.000, 0.000, 0.000, 11:31:03.781, 1561476663781
253, -39168.39, -17874.31, 0.00, 0.00, 0.00, 0.00, 0.00, 0.00, 0.000, 0.000, 0.000, 11:31:03.783, 1561476663783
254, -38639.26, -17359.35, 0.00, 0.00, 0.00, 0.00, 0.00, 0.00, 0.000, 0.000, 0.000, 11:31:03.783, 1561476663783
255, -37202.98, -15951.03, 0.00, 0.00, 0.00, 0.00, 0.00, 0.00, 0.000, 0.000, 0.000, 11:31:03.783, 1561476663783
0, -37526.70, -16263.62, 0.00, 0.00, 0.00, 0.00, 0.00, 0.00, 0.000, 0.000, 0.000, 11:31:03.783, 1561476663783
1, -38999.03, -17704.01, 0.00, 0.00, 0.00, 0.00, 0.00, 0.00, 0.000, 0.000, 0.000, 11:31:03.783, 1561476663783
2, -38862.73, -17577.63, 0.00, 0.00, 0.00, 0.00, 0.00, 0.00, 0.000, 0.000, 0.000, 11:31:03.783, 1561476663783
3, -37390.36, -16137.15, 0.00, 0.00, 0.00, 0.00, 0.00, 0.00, 0.000, 0.000, 0.000, 11:31:03.783, 1561476663783
4, -37343.95, -16080.63, 0.00, 0.00, 0.00, 0.00, 0.00, 0.00, 0.000, 0.000, 0.000, 11:31:03.783, 1561476663783
5, -38802.45, -17510.78, 0.00, 0.00, 0.00, 0.00, 0.00, 0.00, 0.078, -0.026, 1.020, 11:31:03.783, 1561476663783
6, -39050.89, -17759.71, 0.00, 0.00, 0.00, 0.00, 0.00, 0.00, 0.000, 0.000, 0.000, 11:31:03.783, 1561476663783
7, -37631.78, -16367.06, 0.00, 0.00, 0.00, 0.00, 0.00, 0.00, 0.000, 0.000, 0.000, 11:31:03.784, 1561476663784
8, -37204.59, -15948.17, 0.00, 0.00, 0.00, 0.00, 0.00, 0.00, 0.000, 0.000, 0.000, 11:31:03.784, 1561476663784
9, -38564.45, -17279.26, 0.00, 0.00, 0.00, 0.00, 0.00, 0.00, 0.000, 0.000, 0.000, 11:31:03.784, 1561476663784
10, -39174.76, -17879.56, 0.00, 0.00, 0.00, 0.00, 0.00, 0.00, 0.000, 0.000, 0.000, 11:31:03.784, 1561476663784
11, -37876.53, -16611.50, 0.00, 0.00, 0.00, 0.00, 0.00, 0.00, 0.000, 0.000, 0.000, 11:31:03.784, 1561476663784
12, -37081.30, -15824.10, 0.00, 0.00, 0.00, 0.00, 0.00, 0.00, 0.000, 0.000, 0.000, 11:31:03.784, 1561476663784
13, -38293.14, -17006.84, 0.00, 0.00, 0.00, 0.00, 0.00, 0.00, 0.000, 0.000, 0.000, 11:31:03.784, 1561476663784
14, -39250.98, -17951.45, 0.00, 0.00, 0.00, 0.00, 0.00, 0.00, 0.000, 0.000, 0.000, 11:31:03.784, 1561476663784
15, -38151.61, -16881.58, 0.00, 0.00, 0.00, 0.00, 0.00, 0.00, 0.066, -0.044, 1.008, 11:31:03.784, 1561476663784
16, -37053.85, -15798.68, 0.00, 0.00, 0.00, 0.00, 0.00, 0.00, 0.000, 0.000, 0.000, 11:31:03.784, 1561476663784
17, -38028.52, -16751.04, 0.00, 0.00, 0.00, 0.00, 0.00, 0.00, 0.000, 0.000, 0.000, 11:31:03.784, 1561476663784
18, -39236.74, -17943.35, 0.00, 0.00, 0.00, 0.00, 0.00, 0.00, 0.000, 0.000, 0.000, 11:31:03.784, 1561476663784
19, -38402.33, -17133.60, 0.00, 0.00, 0.00, 0.00, 0.00, 0.00, 0.000, 0.000, 0.000, 11:31:03.784, 1561476663784
20, -37089.68, -15844.75, 0.00, 0.00, 0.00, 0.00, 0.00, 0.00, 0.000, 0.000, 0.000, 11:31:03.784, 1561476663784
21, -37759.96, -16491.43, 0.00, 0.00, 0.00, 0.00, 0.00, 0.00, 0.000, 0.000, 0.000, 11:31:03.784, 1561476663784
22, -39133.97, -17844.22, 0.00, 0.00, 0.00, 0.00, 0.00, 0.00, 0.000, 0.000, 0.000, 11:31:03.784, 1561476663784
23, -38636.69, -17360.20, 0.00, 0.00, 0.00, 0.00, 0.00, 0.00, 0.000, 0.000, 0.000, 11:31:03.785, 1561476663785
24, -37208.63, -15957.96, 0.00, 0.00, 0.00, 0.00, 0.00, 0.00, 0.000, 0.000, 0.000, 11:31:03.785, 1561476663785
25, -37541.45, -16275.22, 0.00, 0.00, 0.00, 0.00, 0.00, 0.00, 0.000, 0.000, 0.000, 11:31:03.785, 1561476663785
26, -39008.11, -17707.65, 0.00, 0.00, 0.00, 0.00, 0.00, 0.00, 0.072, -0.026, 1.028, 11:31:03.785, 1561476663785
27, -38888.03, -17596.21, 0.00, 0.00, 0.00, 0.00, 0.00, 0.00, 0.000, 0.000, 0.000, 11:31:03.785, 1561476663785
28, -37412.24, -16153.14, 0.00, 0.00, 0.00, 0.00, 0.00, 0.00, 0.000, 0.000, 0.000, 11:31:03.785, 1561476663785
29, -37334.81, -16075.13, 0.00, 0.00, 0.00, 0.00, 0.00, 0.00, 0.000, 0.000, 0.000, 11:31:03.785, 1561476663785
30, -38800.84, -17513.15, 0.00, 0.00, 0.00, 0.00, 0.00, 0.00, 0.000, 0.000, 0.000, 11:31:03.785, 1561476663785
31, -39061.93, -17773.88, 0.00, 0.00, 0.00, 0.00, 0.00, 0.00, 0.000, 0.000, 0.000, 11:31:03.785, 1561476663785
32, -37654.38, -16396.81, 0.00, 0.00, 0.00, 0.00, 0.00, 0.00, 0.000, 0.000, 0.000, 11:31:03.785, 1561476663785
33, -37204.90, -15953.31, 0.00, 0.00, 0.00, 0.00, 0.00, 0.00, 0.000, 0.000, 0.000, 11:31:03.785, 1561476663785
34, -38557.27, -17276.20, 0.00, 0.00, 0.00, 0.00, 0.00, 0.00, 0.000, 0.000, 0.000, 11:31:03.785, 1561476663785
35, -39215.06, -17927.86, 0.00, 0.00, 0.00, 0.00, 0.00, 0.00, 0.000, 0.000, 0.000, 11:31:03.785, 1561476663785
36, -37935.38, -16669.26, 0.00, 0.00, 0.00, 0.00, 0.00, 0.00, 0.076, -0.028, 1.040, 11:31:03.785, 1561476663785
37, -37100.34, -15845.75, 0.00, 0.00, 0.00, 0.00, 0.00, 0.00, 0.000, 0.000, 0.000, 11:31:03.785, 1561476663785
38, -38286.10, -17003.57, 0.00, 0.00, 0.00, 0.00, 0.00, 0.00, 0.000, 0.000, 0.000, 11:31:03.786, 1561476663786
39, -39253.51, -17956.97, 0.00, 0.00, 0.00, 0.00, 0.00, 0.00, 0.000, 0.000, 0.000, 11:31:03.786, 1561476663786
40, -38164.08, -16890.52, 0.00, 0.00, 0.00, 0.00, 0.00, 0.00, 0.000, 0.000, 0.000, 11:31:03.786, 1561476663786
41, -37046.36, -15794.32, 0.00, 0.00, 0.00, 0.00, 0.00, 0.00, 0.000, 0.000, 0.000, 11:31:03.786, 1561476663786
42, -38020.59, -16749.41, 0.00, 0.00, 0.00, 0.00, 0.00, 0.00, 0.000, 0.000, 0.000, 11:31:03.786, 1561476663786
43, -39278.18, -17986.43, 0.00, 0.00, 0.00, 0.00, 0.00, 0.00, 0.000, 0.000, 0.000, 11:31:03.786, 1561476663786
44, -38472.85, -17197.77, 0.00, 0.00, 0.00, 0.00, 0.00, 0.00, 0.000, 0.000, 0.000, 11:31:03.786, 1561476663786
45, -37155.66, -15902.15, 0.00, 0.00, 0.00, 0.00, 0.00, 0.00, 0.000, 0.000, 0.000, 11:31:03.786, 1561476663786
46, -37799.37, -16523.10, 0.00, 0.00, 0.00, 0.00, 0.00, 0.00, 0.076, -0.034, 1.026, 11:31:03.786, 1561476663786
47, -39180.57, -17879.43, 0.00, 0.00, 0.00, 0.00, 0.00, 0.00, 0.000, 0.000, 0.000, 11:31:03.786, 1561476663786
48, -38706.22, -17420.64, 0.00, 0.00, 0.00, 0.00, 0.00, 0.00, 0.000, 0.000, 0.000, 11:31:03.786, 1561476663786
49, -37263.40, -16006.58, 0.00, 0.00, 0.00, 0.00, 0.00, 0.00, 0.000, 0.000, 0.000, 11:31:03.786, 1561476663786
50, -37549.75, -16280.47, 0.00, 0.00, 0.00, 0.00, 0.00, 0.00, 0.000, 0.000, 0.000, 11:31:03.786, 1561476663786
51, -39018.93, -17725.98, 0.00, 0.00, 0.00, 0.00, 0.00, 0.00, 0.000, 0.000, 0.000, 11:31:03.786, 1561476663786
52, -38925.05, -17636.44, 0.00, 0.00, 0.00, 0.00, 0.00, 0.00, 0.000, 0.000, 0.000, 11:31:03.787, 1561476663787
53, -37461.68, -16199.49, 0.00, 0.00, 0.00, 0.00, 0.00, 0.00, 0.000, 0.000, 0.000, 11:31:03.787, 1561476663787
54, -37363.13, -16095.65, 0.00, 0.00, 0.00, 0.00, 0.00, 0.00, 0.000, 0.000, 0.000, 11:31:03.787, 1561476663787
55, -38810.36, -17512.35, 0.00, 0.00, 0.00, 0.00, 0.00, 0.00, 0.000, 0.000, 0.000, 11:31:03.787, 1561476663787
56, -39103.55, -17807.72, 0.00, 0.00, 0.00, 0.00, 0.00, 0.00, 0.074, -0.042, 1.010, 11:31:03.787, 1561476663787
57, -37681.89, -16420.93, 0.00, 0.00, 0.00, 0.00, 0.00, 0.00, 0.000, 0.000, 0.000, 11:31:03.787, 1561476663787
58, -37183.58, -15929.39, 0.00, 0.00, 0.00, 0.00, 0.00, 0.00, 0.000, 0.000, 0.000, 11:31:03.787, 1561476663787
59, -38529.96, -17252.17, 0.00, 0.00, 0.00, 0.00, 0.00, 0.00, 0.000, 0.000, 0.000, 11:31:03.787, 1561476663787
60, -39204.67, -17916.76, 0.00, 0.00, 0.00, 0.00, 0.00, 0.00, 0.000, 0.000, 0.000, 11:31:03.787, 1561476663787
61, -37932.72, -16669.97, 0.00, 0.00, 0.00, 0.00, 0.00, 0.00, 0.000, 0.000, 0.000, 11:31:03.787, 1561476663787
62, -37094.64, -15842.07, 0.00, 0.00, 0.00, 0.00, 0.00, 0.00, 0.000, 0.000, 0.000, 11:31:03.787, 1561476663787
63, -38286.46, -17003.44, 0.00, 0.00, 0.00, 0.00, 0.00, 0.00, 0.000, 0.000, 0.000, 11:31:03.787, 1561476663787
64, -39275.32, -17978.24, 0.00, 0.00, 0.00, 0.00, 0.00, 0.00, 0.000, 0.000, 0.000, 11:31:03.787, 1561476663787
65, -38207.49, -16937.68, 0.00, 0.00, 0.00, 0.00, 0.00, 0.00, 0.000, 0.000, 0.000, 11:31:03.787, 1561476663787
66, -37092.14, -15845.58, 0.00, 0.00, 0.00, 0.00, 0.00, 0.00, 0.076, -0.052, 1.034, 11:31:03.787, 1561476663787
67, -38039.85, -16768.93, 0.00, 0.00, 0.00, 0.00, 0.00, 0.00, 0.000, 0.000, 0.000, 11:31:03.787, 1561476663787
68, -39282.21, -17984.59, 0.00, 0.00, 0.00, 0.00, 0.00, 0.00, 0.000, 0.000, 0.000, 11:31:03.787, 1561476663787
69, -38483.09, -17201.99, 0.00, 0.00, 0.00, 0.00, 0.00, 0.00, 0.000, 0.000, 0.000, 11:31:03.787, 1561476663787
70, -37144.26, -15888.22, 0.00, 0.00, 0.00, 0.00, 0.00, 0.00, 0.000, 0.000, 0.000, 11:31:03.787, 1561476663787
71, -37767.54, -16498.11, 0.00, 0.00, 0.00, 0.00, 0.00, 0.00, 0.000, 0.000, 0.000, 11:31:03.787, 1561476663787
72, -39183.03, -17884.57, 0.00, 0.00, 0.00, 0.00, 0.00, 0.00, 0.000, 0.000, 0.000, 11:31:03.787, 1561476663787
73, -38727.19, -17444.33, 0.00, 0.00, 0.00, 0.00, 0.00, 0.00, 0.000, 0.000, 0.000, 11:31:03.787, 1561476663787
74, -37260.87, -16012.28, 0.00, 0.00, 0.00, 0.00, 0.00, 0.00, 0.000, 0.000, 0.000, 11:31:03.787, 1561476663787
75, -37511.57, -16251.80, 0.00, 0.00, 0.00, 0.00, 0.00, 0.00, 0.000, 0.000, 0.000, 11:31:03.788, 1561476663788
76, -38985.49, -17688.97, 0.00, 0.00, 0.00, 0.00, 0.00, 0.00, 0.078, -0.038, 1.026, 11:31:03.788, 1561476663788
77, -38925.65, -17637.78, 0.00, 0.00, 0.00, 0.00, 0.00, 0.00, 0.000, 0.000, 0.000, 11:31:03.788, 1561476663788
78, -37469.21, -16208.95, 0.00, 0.00, 0.00, 0.00, 0.00, 0.00, 0.000, 0.000, 0.000, 11:31:03.788, 1561476663788
79, -37347.48, -16087.31, 0.00, 0.00, 0.00, 0.00, 0.00, 0.00, 0.000, 0.000, 0.000, 11:31:03.788, 1561476663788
80, -38795.07, -17509.80, 0.00, 0.00, 0.00, 0.00, 0.00, 0.00, 0.000, 0.000, 0.000, 11:31:03.788, 1561476663788
81, -39110.99, -17822.12, 0.00, 0.00, 0.00, 0.00, 0.00, 0.00, 0.000, 0.000, 0.000, 11:31:03.788, 1561476663788
82, -37712.42, -16452.83, 0.00, 0.00, 0.00, 0.00, 0.00, 0.00, 0.000, 0.000, 0.000, 11:31:03.788, 1561476663788
83, -37191.02, -15940.62, 0.00, 0.00, 0.00, 0.00, 0.00, 0.00, 0.000, 0.000, 0.000, 11:31:03.788, 1561476663788
84, -38549.14, -17267.53, 0.00, 0.00, 0.00, 0.00, 0.00, 0.00, 0.000, 0.000, 0.000, 11:31:03.788, 1561476663788
85, -39246.27, -17950.10, 0.00, 0.00, 0.00, 0.00, 0.00, 0.00, 0.000, 0.000, 0.000, 11:31:03.788, 1561476663788
86, -37998.63, -16726.53, 0.00, 0.00, 0.00, 0.00, 0.00, 0.00, 0.000, 0.000, 0.000, 11:31:03.788, 1561476663788
87, -37130.70, -15876.40, 0.00, 0.00, 0.00, 0.00, 0.00, 0.00, 0.080, -0.048, 1.036, 11:31:03.788, 1561476663788
88, -38300.81, -17018.37, 0.00, 0.00, 0.00, 0.00, 0.00, 0.00, 0.000, 0.000, 0.000, 11:31:03.788, 1561476663788
89, -39307.71, -18010.45, 0.00, 0.00, 0.00, 0.00, 0.00, 0.00, 0.000, 0.000, 0.000, 11:31:03.788, 1561476663788
90, -38257.78, -16986.12, 0.00, 0.00, 0.00, 0.00, 0.00, 0.00, 0.000, 0.000, 0.000, 11:31:03.788, 1561476663788
91, -37115.76, -15865.54, 0.00, 0.00, 0.00, 0.00, 0.00, 0.00, 0.000, 0.000, 0.000, 11:31:04.261, 1561476664261
92, -38024.05, -16751.89, 0.00, 0.00, 0.00, 0.00, 0.00, 0.00, 0.000, 0.000, 0.000, 11:31:04.261, 1561476664261
93, -39267.12, -17968.30, 0.00, 0.00, 0.00, 0.00, 0.00, 0.00, 0.000, 0.000, 0.000, 11:31:04.261, 1561476664261
94, -38501.55, -17224.70, 0.00, 0.00, 0.00, 0.00, 0.00, 0.00, 0.000, 0.000, 0.000, 11:31:04.261, 1561476664261
95, -37151.82, -15903.36, 0.00, 0.00, 0.00, 0.00, 0.00, 0.00, 0.000, 0.000, 0.000, 11:31:04.262, 1561476664262
96, -37744.29, -16477.17, 0.00, 0.00, 0.00, 0.00, 0.00, 0.00, 0.000, 0.000, 0.000, 11:31:04.262, 1561476664262
97, -39155.27, -17858.91, 0.00, 0.00, 0.00, 0.00, 0.00, 0.00, 0.074, -0.038, 1.026, 11:31:04.262, 1561476664262
98, -38752.71, -17470.26, 0.00, 0.00, 0.00, 0.00, 0.00, 0.00, 0.000, 0.000, 0.000, 11:31:04.262, 1561476664262
99, -37309.38, -16059.44, 0.00, 0.00, 0.00, 0.00, 0.00, 0.00, 0.000, 0.000, 0.000, 11:31:04.262, 1561476664262
100, -37554.28, -16291.47, 0.00, 0.00, 0.00, 0.00, 0.00, 0.00, 0.000, 0.000, 0.000, 11:31:04.263, 1561476664263
101, -39025.00, -17731.82, 0.00, 0.00, 0.00, 0.00, 0.00, 0.00, 0.000, 0.000, 0.000, 11:31:04.263, 1561476664263
102, -38980.75, -17695.05, 0.00, 0.00, 0.00, 0.00, 0.00, 0.00, 0.000, 0.000, 0.000, 11:31:04.263, 1561476664263
103, -37522.70, -16264.85, 0.00, 0.00, 0.00, 0.00, 0.00, 0.00, 0.000, 0.000, 0.000, 11:31:04.263, 1561476664263
104, -37371.71, -16109.28, 0.00, 0.00, 0.00, 0.00, 0.00, 0.00, 0.000, 0.000, 0.000, 11:31:04.263, 1561476664263
105, -38805.02, -17509.66, 0.00, 0.00, 0.00, 0.00, 0.00, 0.00, 0.000, 0.000, 0.000, 11:31:04.264, 1561476664264
106, -39142.64, -17845.97, 0.00, 0.00, 0.00, 0.00, 0.00, 0.00, 0.000, 0.000, 0.000, 11:31:04.264, 1561476664264
107, -37742.80, -16471.38, 0.00, 0.00, 0.00, 0.00, 0.00, 0.00, 0.072, -0.034, 1.040, 11:31:04.264, 1561476664264
108, -37221.53, -15960.84, 0.00, 0.00, 0.00, 0.00, 0.00, 0.00, 0.000, 0.000, 0.000, 11:31:04.264, 1561476664264
109, -38570.55, -17284.74, 0.00, 0.00, 0.00, 0.00, 0.00, 0.00, 0.000, 0.000, 0.000, 11:31:04.264, 1561476664264
110, -39282.43, -17985.51, 0.00, 0.00, 0.00, 0.00, 0.00, 0.00, 0.000, 0.000, 0.000, 11:31:04.264, 1561476664264
111, -38020.74, -16752.45, 0.00, 0.00, 0.00, 0.00, 0.00, 0.00, 0.000, 0.000, 0.000, 11:31:04.264, 1561476664264
112, -37143.99, -15891.51, 0.00, 0.00, 0.00, 0.00, 0.00, 0.00, 0.000, 0.000, 0.000, 11:31:04.264, 1561476664264
113, -38290.86, -17011.04, 0.00, 0.00, 0.00, 0.00, 0.00, 0.00, 0.000, 0.000, 0.000, 11:31:04.264, 1561476664264
114, -39305.65, -18006.59, 0.00, 0.00, 0.00, 0.00, 0.00, 0.00, 0.000, 0.000, 0.000, 11:31:04.264, 1561476664264
115, -38284.45, -17006.75, 0.00, 0.00, 0.00, 0.00, 0.00, 0.00, 0.000, 0.000, 0.000, 11:31:04.264, 1561476664264
116, -37132.04, -15879.06, 0.00, 0.00, 0.00, 0.00, 0.00, 0.00, 0.000, 0.000, 0.000, 11:31:04.264, 1561476664264
117, -38022.53, -16746.51, 0.00, 0.00, 0.00, 0.00, 0.00, 0.00, 0.066, -0.034, 1.028, 11:31:04.264, 1561476664264
118, -39297.54, -17998.21, 0.00, 0.00, 0.00, 0.00, 0.00, 0.00, 0.000, 0.000, 0.000, 11:31:04.264, 1561476664264
119, -38562.95, -17282.10, 0.00, 0.00, 0.00, 0.00, 0.00, 0.00, 0.000, 0.000, 0.000, 11:31:04.264, 1561476664264
120, -37193.68, -15939.90, 0.00, 0.00, 0.00, 0.00, 0.00, 0.00, 0.000, 0.000, 0.000, 11:31:04.264, 1561476664264
121, -37783.12, -16513.89, 0.00, 0.00, 0.00, 0.00, 0.00, 0.00, 0.000, 0.000, 0.000, 11:31:04.264, 1561476664264
122, -39218.23, -17913.74, 0.00, 0.00, 0.00, 0.00, 0.00, 0.00, 0.000, 0.000, 0.000, 11:31:04.265, 1561476664265
123, -38802.70, -17508.84, 0.00, 0.00, 0.00, 0.00, 0.00, 0.00, 0.000, 0.000, 0.000, 11:31:04.265, 1561476664265
124, -37350.48, -16083.29, 0.00, 0.00, 0.00, 0.00, 0.00, 0.00, 0.000, 0.000, 0.000, 11:31:04.265, 1561476664265
125, -37554.91, -16288.63, 0.00, 0.00, 0.00, 0.00, 0.00, 0.00, 0.000, 0.000, 0.000, 11:31:04.265, 1561476664265
126, -39003.77, -17708.77, 0.00, 0.00, 0.00, 0.00, 0.00, 0.00, 0.000, 0.000, 0.000, 11:31:04.265, 1561476664265
127, -38995.90, -17704.37, 0.00, 0.00, 0.00, 0.00, 0.00, 0.00, 0.074, -0.040, 1.026, 11:31:04.265, 1561476664265
128, -37559.16, -16296.63, 0.00, 0.00, 0.00, 0.00, 0.00, 0.00, 0.000, 0.000, 0.000, 11:31:04.265, 1561476664265
129, -37373.21, -16107.36, 0.00, 0.00, 0.00, 0.00, 0.00, 0.00, 0.000, 0.000, 0.000, 11:31:04.265, 1561476664265
130, -38809.00, -17510.65, 0.00, 0.00, 0.00, 0.00, 0.00, 0.00, 0.000, 0.000, 0.000, 11:31:04.265, 1561476664265
131, -39188.46, -17885.44, 0.00, 0.00, 0.00, 0.00, 0.00, 0.00, 0.000, 0.000, 0.000, 11:31:04.265, 1561476664265
132, -37801.52, -16526.37, 0.00, 0.00, 0.00, 0.00, 0.00, 0.00, 0.000, 0.000, 0.000, 11:31:04.265, 1561476664265
133, -37230.34, -15968.02, 0.00, 0.00, 0.00, 0.00, 0.00, 0.00, 0.000, 0.000, 0.000, 11:31:04.265, 1561476664265
134, -38550.88, -17259.26, 0.00, 0.00, 0.00, 0.00, 0.00, 0.00, 0.000, 0.000, 0.000, 11:31:04.265, 1561476664265
135, -39293.00, -17990.29, 0.00, 0.00, 0.00, 0.00, 0.00, 0.00, 0.000, 0.000, 0.000, 11:31:04.265, 1561476664265
136, -38062.52, -16782.34, 0.00, 0.00, 0.00, 0.00, 0.00, 0.00, 0.000, 0.000, 0.000, 11:31:04.265, 1561476664265
137, -37157.29, -15891.17, 0.00, 0.00, 0.00, 0.00, 0.00, 0.00, 0.000, 0.000, 0.000, 11:31:04.265, 1561476664265
138, -38303.76, -17014.48, 0.00, 0.00, 0.00, 0.00, 0.00, 0.00, 0.080, -0.040, 1.034, 11:31:04.265, 1561476664265
139, -39344.43, -18042.21, 0.00, 0.00, 0.00, 0.00, 0.00, 0.00, 0.000, 0.000, 0.000, 11:31:04.265, 1561476664265
140, -38319.85, -17042.94, 0.00, 0.00, 0.00, 0.00, 0.00, 0.00, 0.000, 0.000, 0.000, 11:31:04.265, 1561476664265
141, -37140.20, -15885.03, 0.00, 0.00, 0.00, 0.00, 0.00, 0.00, 0.000, 0.000, 0.000, 11:31:04.265, 1561476664265
142, -38012.74, -16737.07, 0.00, 0.00, 0.00, 0.00, 0.00, 0.00, 0.000, 0.000, 0.000, 11:31:04.266, 1561476664266
143, -39301.47, -17995.34, 0.00, 0.00, 0.00, 0.00, 0.00, 0.00, 0.000, 0.000, 0.000, 11:31:04.266, 1561476664266
144, -38594.60, -17306.87, 0.00, 0.00, 0.00, 0.00, 0.00, 0.00, 0.000, 0.000, 0.000, 11:31:04.266, 1561476664266
145, -37227.70, -15973.76, 0.00, 0.00, 0.00, 0.00, 0.00, 0.00, 0.000, 0.000, 0.000, 11:31:04.266, 1561476664266
146, -37770.63, -16500.15, 0.00, 0.00, 0.00, 0.00, 0.00, 0.00, 0.000, 0.000, 0.000, 11:31:04.266, 1561476664266
147, -39164.39, -17862.24, 0.00, 0.00, 0.00, 0.00, 0.00, 0.00, 0.000, 0.000, 0.000, 11:31:04.266, 1561476664266
148, -38762.77, -17471.02, 0.00, 0.00, 0.00, 0.00, 0.00, 0.00, 0.072, -0.034, 1.030, 11:31:04.266, 1561476664266
149, -37310.89, -16053.67, 0.00, 0.00, 0.00, 0.00, 0.00, 0.00, 0.000, 0.000, 0.000, 11:31:04.266, 1561476664266
150, -37537.70, -16272.14, 0.00, 0.00, 0.00, 0.00, 0.00, 0.00, 0.000, 0.000, 0.000, 11:31:04.266, 1561476664266
151, -39036.07, -17740.15, 0.00, 0.00, 0.00, 0.00, 0.00, 0.00, 0.000, 0.000, 0.000, 11:31:04.266, 1561476664266
152, -39079.59, -17787.92, 0.00, 0.00, 0.00, 0.00, 0.00, 0.00, 0.000, 0.000, 0.000, 11:31:04.266, 1561476664266
153, -37657.26, -16391.88, 0.00, 0.00, 0.00, 0.00, 0.00, 0.00, 0.000, 0.000, 0.000, 11:31:04.266, 1561476664266
154, -37450.50, -16188.92, 0.00, 0.00, 0.00, 0.00, 0.00, 0.00, 0.000, 0.000, 0.000, 11:31:04.266, 1561476664266
155, -38838.68, -17549.05, 0.00, 0.00, 0.00, 0.00, 0.00, 0.00, 0.000, 0.000, 0.000, 11:31:04.266, 1561476664266
156, -39208.24, -17911.30, 0.00, 0.00, 0.00, 0.00, 0.00, 0.00, 0.000, 0.000, 0.000, 11:31:04.266, 1561476664266
157, -37801.70, -16534.48, 0.00, 0.00, 0.00, 0.00, 0.00, 0.00, 0.000, 0.000, 0.000, 11:31:04.266, 1561476664266
158, -37213.95, -15957.18, 0.00, 0.00, 0.00, 0.00, 0.00, 0.00, 0.072, -0.042, 1.036, 11:31:04.266, 1561476664266
159, -38547.93, -17261.20, 0.00, 0.00, 0.00, 0.00, 0.00, 0.00, 0.000, 0.000, 0.000, 11:31:04.267, 1561476664267
160, -39302.34, -18007.95, 0.00, 0.00, 0.00, 0.00, 0.00, 0.00, 0.000, 0.000, 0.000, 11:31:04.267, 1561476664267
161, -38068.42, -16802.54, 0.00, 0.00, 0.00, 0.00, 0.00, 0.00, 0.000, 0.000, 0.000, 11:31:04.267, 1561476664267
162, -37164.00, -15917.26, 0.00, 0.00, 0.00, 0.00, 0.00, 0.00, 0.000, 0.000, 0.000, 11:31:04.267, 1561476664267
163, -38292.23, -17024.21, 0.00, 0.00, 0.00, 0.00, 0.00, 0.00, 0.000, 0.000, 0.000, 11:31:04.267, 1561476664267
164, -39350.18, -18060.41, 0.00, 0.00, 0.00, 0.00, 0.00, 0.00, 0.000, 0.000, 0.000, 11:31:04.268, 1561476664268
165, -38350.77, -17083.68, 0.00, 0.00, 0.00, 0.00, 0.00, 0.00, 0.000, 0.000, 0.000, 11:31:04.268, 1561476664268
166, -37161.63, -15913.28, 0.00, 0.00, 0.00, 0.00, 0.00, 0.00, 0.000, 0.000, 0.000, 11:31:04.268, 1561476664268
167, -38031.36, -16756.54, 0.00, 0.00, 0.00, 0.00, 0.00, 0.00, 0.000, 0.000, 0.000, 11:31:04.268, 1561476664268
168, -39320.54, -18021.29, 0.00, 0.00, 0.00, 0.00, 0.00, 0.00, 0.070, -0.038, 1.028, 11:31:04.268, 1561476664268
169, -38616.08, -17332.48, 0.00, 0.00, 0.00, 0.00, 0.00, 0.00, 0.000, 0.000, 0.000, 11:31:04.268, 1561476664268
170, -37237.58, -15978.14, 0.00, 0.00, 0.00, 0.00, 0.00, 0.00, 0.000, 0.000, 0.000, 11:31:04.268, 1561476664268
171, -37774.47, -16505.42, 0.00, 0.00, 0.00, 0.00, 0.00, 0.00, 0.000, 0.000, 0.000, 11:31:04.268, 1561476664268
172, -39205.45, -17911.17, 0.00, 0.00, 0.00, 0.00, 0.00, 0.00, 0.000, 0.000, 0.000, 11:31:04.268, 1561476664268
173, -38858.21, -17571.53, 0.00, 0.00, 0.00, 0.00, 0.00, 0.00, 0.000, 0.000, 0.000, 11:31:04.268, 1561476664268
174, -37390.54, -16131.50, 0.00, 0.00, 0.00, 0.00, 0.00, 0.00, 0.000, 0.000, 0.000, 11:31:04.268, 1561476664268
175, -37538.39, -16274.46, 0.00, 0.00, 0.00, 0.00, 0.00, 0.00, 0.000, 0.000, 0.000, 11:31:04.268, 1561476664268
176, -39008.91, -17717.42, 0.00, 0.00, 0.00, 0.00, 0.00, 0.00, 0.000, 0.000, 0.000, 11:31:04.268, 1561476664268
177, -39052.21, -17760.63, 0.00, 0.00, 0.00, 0.00, 0.00, 0.00, 0.000, 0.000, 0.000, 11:31:04.268, 1561476664268
178, -37608.51, -16345.96, 0.00, 0.00, 0.00, 0.00, 0.00, 0.00, 0.078, -0.036, 1.028, 11:31:04.268, 1561476664268
179, -37372.85, -16117.64, 0.00, 0.00, 0.00, 0.00, 0.00, 0.00, 0.000, 0.000, 0.000, 11:31:04.268, 1561476664268
180, -38783.43, -17505.48, 0.00, 0.00, 0.00, 0.00, 0.00, 0.00, 0.000, 0.000, 0.000, 11:31:04.268, 1561476664268
181, -39212.96, -17927.78, 0.00, 0.00, 0.00, 0.00, 0.00, 0.00, 0.000, 0.000, 0.000, 11:31:04.268, 1561476664268
182, -37852.21, -16590.25, 0.00, 0.00, 0.00, 0.00, 0.00, 0.00, 0.000, 0.000, 0.000, 11:31:04.268, 1561476664268
183, -37237.09, -15982.88, 0.00, 0.00, 0.00, 0.00, 0.00, 0.00, 0.000, 0.000, 0.000, 11:31:04.268, 1561476664268
184, -38538.65, -17250.16, 0.00, 0.00, 0.00, 0.00, 0.00, 0.00, 0.000, 0.000, 0.000, 11:31:04.268, 1561476664268
185, -39340.12, -18040.79, 0.00, 0.00, 0.00, 0.00, 0.00, 0.00, 0.000, 0.000, 0.000, 11:31:04.268, 1561476664268
186, -38138.60, -16867.01, 0.00, 0.00, 0.00, 0.00, 0.00, 0.00, 0.000, 0.000, 0.000, 11:31:04.268, 1561476664268
187, -37168.65, -15917.10, 0.00, 0.00, 0.00, 0.00, 0.00, 0.00, 0.000, 0.000, 0.000, 11:31:04.268, 1561476664268
188, -38257.80, -16979.55, 0.00, 0.00, 0.00, 0.00, 0.00, 0.00, 0.080, -0.036, 1.028, 11:31:04.268, 1561476664268
189, -39348.25, -18048.47, 0.00, 0.00, 0.00, 0.00, 0.00, 0.00, 0.000, 0.000, 0.000, 11:31:04.268, 1561476664268
190, -38381.90, -17106.50, 0.00, 0.00, 0.00, 0.00, 0.00, 0.00, 0.000, 0.000, 0.000, 11:31:04.268, 1561476664268
191, -37197.08, -15946.76, 0.00, 0.00, 0.00, 0.00, 0.00, 0.00, 0.000, 0.000, 0.000, 11:31:04.268, 1561476664268
192, -38036.66, -16764.97, 0.00, 0.00, 0.00, 0.00, 0.00, 0.00, 0.000, 0.000, 0.000, 11:31:04.268, 1561476664268
193, -39329.64, -18034.44, 0.00, 0.00, 0.00, 0.00, 0.00, 0.00, 0.000, 0.000, 0.000, 11:31:04.269, 1561476664269
194, -38658.70, -17383.38, 0.00, 0.00, 0.00, 0.00, 0.00, 0.00, 0.000, 0.000, 0.000, 11:31:04.269, 1561476664269
195, -37271.58, -16021.77, 0.00, 0.00, 0.00, 0.00, 0.00, 0.00, 0.000, 0.000, 0.000, 11:31:04.269, 1561476664269
196, -37747.56, -16480.72, 0.00, 0.00, 0.00, 0.00, 0.00, 0.00, 0.000, 0.000, 0.000, 11:31:04.269, 1561476664269
197, -39165.57, -17871.81, 0.00, 0.00, 0.00, 0.00, 0.00, 0.00, 0.000, 0.000, 0.000, 11:31:04.269, 1561476664269
198, -38869.73, -17593.10, 0.00, 0.00, 0.00, 0.00, 0.00, 0.00, 0.000, 0.000, 0.000, 11:31:04.269, 1561476664269
199, -37414.50, -16171.24, 0.00, 0.00, 0.00, 0.00, 0.00, 0.00, 0.074, -0.044, 1.038, 11:31:04.269, 1561476664269
200, -37545.01, -16290.26, 0.00, 0.00, 0.00, 0.00, 0.00, 0.00, 0.000, 0.000, 0.000, 11:31:04.269, 1561476664269
201, -39013.76, -17722.96, 0.00, 0.00, 0.00, 0.00, 0.00, 0.00, 0.000, 0.000, 0.000, 11:31:04.269, 1561476664269
202, -39082.43, -17797.80, 0.00, 0.00, 0.00, 0.00, 0.00, 0.00, 0.000, 0.000, 0.000, 11:31:04.269, 1561476664269
203, -37649.90, -16394.54, 0.00, 0.00, 0.00, 0.00, 0.00, 0.00, 0.000, 0.000, 0.000, 11:31:04.269, 1561476664269
204, -37390.64, -16132.75, 0.00, 0.00, 0.00, 0.00, 0.00, 0.00, 0.000, 0.000, 0.000, 11:31:04.269, 1561476664269
205, -38804.35, -17513.62, 0.00, 0.00, 0.00, 0.00, 0.00, 0.00, 0.000, 0.000, 0.000, 11:31:04.269, 1561476664269
206, -39255.41, -17957.08, 0.00, 0.00, 0.00, 0.00, 0.00, 0.00, 0.000, 0.000, 0.000, 11:31:04.269, 1561476664269
207, -37907.71, -16639.13, 0.00, 0.00, 0.00, 0.00, 0.00, 0.00, 0.000, 0.000, 0.000, 11:31:04.269, 1561476664269
208, -37261.79, -16002.49, 0.00, 0.00, 0.00, 0.00, 0.00, 0.00, 0.000, 0.000, 0.000, 11:31:04.269, 1561476664269
209, -38548.96, -17265.85, 0.00, 0.00, 0.00, 0.00, 0.00, 0.00, 0.072, -0.036, 1.034, 11:31:04.269, 1561476664269
210, -39349.51, -18058.78, 0.00, 0.00, 0.00, 0.00, 0.00, 0.00, 0.000, 0.000, 0.000, 11:31:04.269, 1561476664269
211, -38165.07, -16895.39, 0.00, 0.00, 0.00, 0.00, 0.00, 0.00, 0.000, 0.000, 0.000, 11:31:04.269, 1561476664269
212, -37208.77, -15950.18, 0.00, 0.00, 0.00, 0.00, 0.00, 0.00, 0.000, 0.000, 0.000, 11:31:04.741, 1561476664741
213, -38285.96, -16999.93, 0.00, 0.00, 0.00, 0.00, 0.00, 0.00, 0.000, 0.000, 0.000, 11:31:04.742, 1561476664742
214, -39380.93, -18079.81, 0.00, 0.00, 0.00, 0.00, 0.00, 0.00, 0.000, 0.000, 0.000, 11:31:04.742, 1561476664742
215, -38425.66, -17151.07, 0.00, 0.00, 0.00, 0.00, 0.00, 0.00, 0.000, 0.000, 0.000, 11:31:04.742, 1561476664742
216, -37214.56, -15963.30, 0.00, 0.00, 0.00, 0.00, 0.00, 0.00, 0.000, 0.000, 0.000, 11:31:04.742, 1561476664742
217, -38028.95, -16753.88, 0.00, 0.00, 0.00, 0.00, 0.00, 0.00, 0.000, 0.000, 0.000, 11:31:04.742, 1561476664742
218, -39341.64, -18038.01, 0.00, 0.00, 0.00, 0.00, 0.00, 0.00, 0.000, 0.000, 0.000, 11:31:04.742, 1561476664742
219, -38688.01, -17397.57, 0.00, 0.00, 0.00, 0.00, 0.00, 0.00, 0.068, -0.036, 1.034, 11:31:04.742, 1561476664742
220, -37293.82, -16035.99, 0.00, 0.00, 0.00, 0.00, 0.00, 0.00, 0.000, 0.000, 0.000, 11:31:04.742, 1561476664742
221, -37770.65, -16506.36, 0.00, 0.00, 0.00, 0.00, 0.00, 0.00, 0.000, 0.000, 0.000, 11:31:04.742, 1561476664742
222, -39230.33, -17935.40, 0.00, 0.00, 0.00, 0.00, 0.00, 0.00, 0.000, 0.000, 0.000, 11:31:04.742, 1561476664742
223, -38940.94, -17651.84, 0.00, 0.00, 0.00, 0.00, 0.00, 0.00, 0.000, 0.000, 0.000, 11:31:04.742, 1561476664742
224, -37472.05, -16208.90, 0.00, 0.00, 0.00, 0.00, 0.00, 0.00, 0.000, 0.000, 0.000, 11:31:04.742, 1561476664742
225, -37578.63, -16309.71, 0.00, 0.00, 0.00, 0.00, 0.00, 0.00, 0.000, 0.000, 0.000, 11:31:04.742, 1561476664742
226, -39054.46, -17754.30, 0.00, 0.00, 0.00, 0.00, 0.00, 0.00, 0.000, 0.000, 0.000, 11:31:04.742, 1561476664742
227, -39145.37, -17845.30, 0.00, 0.00, 0.00, 0.00, 0.00, 0.00, 0.000, 0.000, 0.000, 11:31:04.742, 1561476664742
228, -37693.82, -16427.37, 0.00, 0.00, 0.00, 0.00, 0.00, 0.00, 0.000, 0.000, 0.000, 11:31:04.742, 1561476664742
229, -37393.28, -16131.30, 0.00, 0.00, 0.00, 0.00, 0.00, 0.00, 0.076, -0.042, 1.028, 11:31:04.742, 1561476664742
230, -38795.30, -17501.55, 0.00, 0.00, 0.00, 0.00, 0.00, 0.00, 0.000, 0.000, 0.000, 11:31:04.742, 1561476664742
231, -39283.32, -17981.49, 0.00, 0.00, 0.00, 0.00, 0.00, 0.00, 0.000, 0.000, 0.000, 11:31:04.742, 1561476664742
232, -37936.16, -16662.60, 0.00, 0.00, 0.00, 0.00, 0.00, 0.00, 0.000, 0.000, 0.000, 11:31:04.742, 1561476664742
233, -37275.82, -16005.88, 0.00, 0.00, 0.00, 0.00, 0.00, 0.00, 0.000, 0.000, 0.000, 11:31:04.742, 1561476664742
234, -38541.02, -17245.09, 0.00, 0.00, 0.00, 0.00, 0.00, 0.00, 0.000, 0.000, 0.000, 11:31:04.742, 1561476664742
235, -39365.20, -18064.30, 0.00, 0.00, 0.00, 0.00, 0.00, 0.00, 0.000, 0.000, 0.000, 11:31:04.743, 1561476664743
236, -38196.70, -16922.30, 0.00, 0.00, 0.00, 0.00, 0.00, 0.00, 0.000, 0.000, 0.000, 11:31:04.743, 1561476664743
237, -37239.95, -15978.46, 0.00, 0.00, 0.00, 0.00, 0.00, 0.00, 0.000, 0.000, 0.000, 11:31:04.743, 1561476664743
238, -38304.54, -17022.35, 0.00, 0.00, 0.00, 0.00, 0.00, 0.00, 0.000, 0.000, 0.000, 11:31:04.743, 1561476664743
239, -39431.52, -18127.24, 0.00, 0.00, 0.00, 0.00, 0.00, 0.00, 0.072, -0.044, 1.024, 11:31:04.743, 1561476664743
240, -38498.06, -17215.85, 0.00, 0.00, 0.00, 0.00, 0.00, 0.00, 0.000, 0.000, 0.000, 11:31:04.743, 1561476664743
241, -37249.16, -15985.50, 0.00, 0.00, 0.00, 0.00, 0.00, 0.00, 0.000, 0.000, 0.000, 11:31:04.743, 1561476664743
242, -38015.93, -16732.89, 0.00, 0.00, 0.00, 0.00, 0.00, 0.00, 0.000, 0.000, 0.000, 11:31:04.743, 1561476664743
243, -39337.39, -18032.11, 0.00, 0.00, 0.00, 0.00, 0.00, 0.00, 0.000, 0.000, 0.000, 11:31:04.743, 1561476664743
244, -38736.64, -17449.09, 0.00, 0.00, 0.00, 0.00, 0.00, 0.00, 0.000, 0.000, 0.000, 11:31:04.743, 1561476664743
245, -37350.32, -16091.40, 0.00, 0.00, 0.00, 0.00, 0.00, 0.00, 0.000, 0.000, 0.000, 11:31:04.743, 1561476664743
246, -37806.81, -16535.08, 0.00, 0.00, 0.00, 0.00, 0.00, 0.00, 0.000, 0.000, 0.000, 11:31:04.743, 1561476664743
247, -39242.26, -17940.85, 0.00, 0.00, 0.00, 0.00, 0.00, 0.00, 0.000, 0.000, 0.000, 11:31:04.743, 1561476664743
248, -38973.55, -17680.83, 0.00, 0.00, 0.00, 0.00, 0.00, 0.00, 0.000, 0.000, 0.000, 11:31:04.743, 1561476664743
249, -37505.78, -16240.33, 0.00, 0.00, 0.00, 0.00, 0.00, 0.00, 0.000, 0.000, 0.000, 11:31:04.743, 1561476664743
250, -37581.77, -16311.90, 0.00, 0.00, 0.00, 0.00, 0.00, 0.00, 0.072, -0.046, 1.032, 11:31:04.743, 1561476664743
251, -39026.17, -17726.21, 0.00, 0.00, 0.00, 0.00, 0.00, 0.00, 0.000, 0.000, 0.000, 11:31:04.745, 1561476664745
252, -39144.59, -17848.81, 0.00, 0.00, 0.00, 0.00, 0.00, 0.00, 0.000, 0.000, 0.000, 11:31:04.745, 1561476664745
253, -37714.59, -16451.98, 0.00, 0.00, 0.00, 0.00, 0.00, 0.00, 0.000, 0.000, 0.000, 11:31:04.745, 1561476664745
254, -37414.47, -16152.17, 0.00, 0.00, 0.00, 0.00, 0.00, 0.00, 0.000, 0.000, 0.000, 11:31:04.745, 1561476664745
255, -38813.40, -17520.71, 0.00, 0.00, 0.00, 0.00, 0.00, 0.00, 0.000, 0.000, 0.000, 11:31:04.745, 1561476664745
0, -39322.35, -18019.86, 0.00, 0.00, 0.00, 0.00, 0.00, 0.00, 0.000, 0.000, 0.000, 11:31:04.745, 1561476664745
1, -37987.88, -16711.37, 0.00, 0.00, 0.00, 0.00, 0.00, 0.00, 0.000, 0.000, 0.000, 11:31:04.746, 1561476664746
2, -37306.20, -16042.32, 0.00, 0.00, 0.00, 0.00, 0.00, 0.00, 0.000, 0.000, 0.000, 11:31:04.746, 1561476664746
3, -38570.59, -17279.62, 0.00, 0.00, 0.00, 0.00, 0.00, 0.00, 0.000, 0.000, 0.000, 11:31:04.746, 1561476664746
4, -39418.21, -18115.06, 0.00, 0.00, 0.00, 0.00, 0.00, 0.00, 0.070, -0.036, 1.024, 11:31:04.746, 1561476664746
5, -38253.49, -16973.58, 0.00, 0.00, 0.00, 0.00, 0.00, 0.00, 0.000, 0.000, 0.000, 11:31:04.746, 1561476664746
6, -37243.95, -15982.08, 0.00, 0.00, 0.00, 0.00, 0.00, 0.00, 0.000, 0.000, 0.000, 11:31:04.746, 1561476664746
7, -38291.40, -17003.46, 0.00, 0.00, 0.00, 0.00, 0.00, 0.00, 0.000, 0.000, 0.000, 11:31:04.746, 1561476664746
8, -39415.38, -18111.64, 0.00, 0.00, 0.00, 0.00, 0.00, 0.00, 0.000, 0.000, 0.000, 11:31:04.747, 1561476664747
9, -38509.66, -17230.49, 0.00, 0.00, 0.00, 0.00, 0.00, 0.00, 0.000, 0.000, 0.000, 11:31:04.747, 1561476664747
10, -37263.46, -16006.15, 0.00, 0.00, 0.00, 0.00, 0.00, 0.00, 0.000, 0.000, 0.000, 11:31:04.747, 1561476664747
11, -38032.99, -16754.26, 0.00, 0.00, 0.00, 0.00, 0.00, 0.00, 0.000, 0.000, 0.000, 11:31:04.747, 1561476664747
12, -39370.63, -18068.86, 0.00, 0.00, 0.00, 0.00, 0.00, 0.00, 0.000, 0.000, 0.000, 11:31:04.748, 1561476664748
13, -38767.67, -17479.58, 0.00, 0.00, 0.00, 0.00, 0.00, 0.00, 0.000, 0.000, 0.000, 11:31:04.748, 1561476664748
14, -37354.75, -16096.52, 0.00, 0.00, 0.00, 0.00, 0.00, 0.00, 0.076, -0.040, 1.032, 11:31:04.748, 1561476664748
15, -37782.80, -16509.49, 0.00, 0.00, 0.00, 0.00, 0.00, 0.00, 0.000, 0.000, 0.000, 11:31:04.748, 1561476664748
16, -39227.40, -17926.93, 0.00, 0.00, 0.00, 0.00, 0.00, 0.00, 0.000, 0.000, 0.000, 11:31:04.748, 1561476664748
17, -38991.70, -17697.15, 0.00, 0.00, 0.00, 0.00, 0.00, 0.00, 0.000, 0.000, 0.000, 11:31:04.748, 1561476664748
18, -37539.75, -16274.33, 0.00, 0.00, 0.00, 0.00, 0.00, 0.00, 0.000, 0.000, 0.000, 11:31:04.748, 1561476664748
19, -37582.04, -16314.22, 0.00, 0.00, 0.00, 0.00, 0.00, 0.00, 0.000, 0.000, 0.000, 11:31:04.748, 1561476664748
20, -39045.08, -17749.36, 0.00, 0.00, 0.00, 0.00, 0.00, 0.00, 0.000, 0.000, 0.000, 11:31:04.748, 1561476664748
21, -39191.93, -17895.34, 0.00, 0.00, 0.00, 0.00, 0.00, 0.00, 0.000, 0.000, 0.000, 11:31:04.748, 1561476664748
22, -37767.56, -16497.02, 0.00, 0.00, 0.00, 0.00, 0.00, 0.00, 0.000, 0.000, 0.000, 11:31:04.748, 1561476664748
23, -37437.58, -16168.76, 0.00, 0.00, 0.00, 0.00, 0.00, 0.00, 0.000, 0.000, 0.000, 11:31:04.748, 1561476664748
24, -38828.64, -17529.78, 0.00, 0.00, 0.00, 0.00, 0.00, 0.00, 0.072, -0.034, 1.036, 11:31:04.748, 1561476664748
25, -39345.75, -18041.48, 0.00, 0.00, 0.00, 0.00, 0.00, 0.00, 0.000, 0.000, 0.000, 11:31:04.748, 1561476664748
26, -38012.67, -16742.22, 0.00, 0.00, 0.00, 0.00, 0.00, 0.00, 0.000, 0.000, 0.000, 11:31:04.748, 1561476664748
27, -37313.55, -16051.84, 0.00, 0.00, 0.00, 0.00, 0.00, 0.00, 0.000, 0.000, 0.000, 11:31:04.748, 1561476664748
28, -38555.28, -17262.45, 0.00, 0.00, 0.00, 0.00, 0.00, 0.00, 0.000, 0.000, 0.000, 11:31:04.748, 1561476664748
29, -39416.14, -18111.53, 0.00, 0.00, 0.00, 0.00, 0.00, 0.00, 0.000, 0.000, 0.000, 11:31:04.749, 1561476664749
30, -38258.16, -16984.91, 0.00, 0.00, 0.00, 0.00, 0.00, 0.00, 0.000, 0.000, 0.000, 11:31:04.749, 1561476664749
31, -37257.47, -15999.94, 0.00, 0.00, 0.00, 0.00, 0.00, 0.00, 0.000, 0.000, 0.000, 11:31:04.749, 1561476664749
32, -38299.42, -17017.70, 0.00, 0.00, 0.00, 0.00, 0.00, 0.00, 0.000, 0.000, 0.000, 11:31:04.749, 1561476664749
33, -39434.09, -18131.44, 0.00, 0.00, 0.00, 0.00, 0.00, 0.00, 0.000, 0.000, 0.000, 11:31:04.749, 1561476664749
34, -38533.09, -17252.80, 0.00, 0.00, 0.00, 0.00, 0.00, 0.00, 0.070, -0.042, 1.030, 11:31:04.749, 1561476664749
35, -37270.73, -16016.32, 0.00, 0.00, 0.00, 0.00, 0.00, 0.00, 0.000, 0.000, 0.000, 11:31:04.749, 1561476664749
36, -38021.34, -16748.21, 0.00, 0.00, 0.00, 0.00, 0.00, 0.00, 0.000, 0.000, 0.000, 11:31:04.749, 1561476664749
37, -39358.22, -18059.02, 0.00, 0.00, 0.00, 0.00, 0.00, 0.00, 0.000, 0.000, 0.000, 11:31:04.749, 1561476664749
38, -38786.58, -17499.36, 0.00, 0.00, 0.00, 0.00, 0.00, 0.00, 0.000, 0.000, 0.000, 11:31:04.749, 1561476664749
39, -37412.50, -16146.90, 0.00, 0.00, 0.00, 0.00, 0.00, 0.00, 0.000, 0.000, 0.000, 11:31:04.749, 1561476664749
40, -37811.59, -16540.38, 0.00, 0.00, 0.00, 0.00, 0.00, 0.00, 0.000, 0.000, 0.000, 11:31:04.749, 1561476664749
41, -39256.37, -17951.96, 0.00, 0.00, 0.00, 0.00, 0.00, 0.00, 0.000, 0.000, 0.000, 11:31:04.749, 1561476664749
42, -39041.07, -17742.75, 0.00, 0.00, 0.00, 0.00, 0.00, 0.00, 0.000, 0.000, 0.000, 11:31:04.749, 1561476664749
43, -37570.02, -16301.57, 0.00, 0.00, 0.00, 0.00, 0.00, 0.00, 0.000, 0.000, 0.000, 11:31:04.749, 1561476664749
44, -37577.10, -16305.78, 0.00, 0.00, 0.00, 0.00, 0.00, 0.00, 0.074, -0.042, 1.028, 11:31:04.749, 1561476664749
45, -39035.27, -17735.08, 0.00, 0.00, 0.00, 0.00, 0.00, 0.00, 0.000, 0.000, 0.000, 11:31:04.750, 1561476664750
46, -39208.00, -17915.73, 0.00, 0.00, 0.00, 0.00, 0.00, 0.00, 0.000, 0.000, 0.000, 11:31:04.750, 1561476664750
47, -37785.36, -16524.33, 0.00, 0.00, 0.00, 0.00, 0.00, 0.00, 0.000, 0.000, 0.000, 11:31:04.750, 1561476664750
48, -37416.57, -16157.61, 0.00, 0.00, 0.00, 0.00, 0.00, 0.00, 0.000, 0.000, 0.000, 11:31:04.750, 1561476664750
49, -38792.86, -17500.01, 0.00, 0.00, 0.00, 0.00, 0.00, 0.00, 0.000, 0.000, 0.000, 11:31:04.750, 1561476664750
50, -39346.71, -18042.01, 0.00, 0.00, 0.00, 0.00, 0.00, 0.00, 0.000, 0.000, 0.000, 11:31:04.750, 1561476664750
51, -38039.47, -16757.66, 0.00, 0.00, 0.00, 0.00, 0.00, 0.00, 0.000, 0.000, 0.000, 11:31:04.750, 1561476664750
52, -37309.20, -16043.95, 0.00, 0.00, 0.00, 0.00, 0.00, 0.00, 0.000, 0.000, 0.000, 11:31:04.750, 1561476664750
53, -38548.87, -17262.21, 0.00, 0.00, 0.00, 0.00, 0.00, 0.00, 0.000, 0.000, 0.000, 11:31:04.750, 1561476664750
54, -39433.91, -18134.46, 0.00, 0.00, 0.00, 0.00, 0.00, 0.00, 0.000, 0.000, 0.000, 11:31:04.750, 1561476664750
55, -38297.61, -17023.38, 0.00, 0.00, 0.00, 0.00, 0.00, 0.00, 0.080, -0.036, 1.034, 11:31:04.750, 1561476664750
56, -37259.66, -15999.96, 0.00, 0.00, 0.00, 0.00, 0.00, 0.00, 0.000, 0.000, 0.000, 11:31:04.750, 1561476664750
57, -38279.08, -16998.26, 0.00, 0.00, 0.00, 0.00, 0.00, 0.00, 0.000, 0.000, 0.000, 11:31:04.750, 1561476664750
58, -39452.66, -18150.98, 0.00, 0.00, 0.00, 0.00, 0.00, 0.00, 0.000, 0.000, 0.000, 11:31:04.750, 1561476664750
59, -38577.59, -17296.61, 0.00, 0.00, 0.00, 0.00, 0.00, 0.00, 0.000, 0.000, 0.000, 11:31:04.750, 1561476664750
60, -37295.83, -16037.35, 0.00, 0.00, 0.00, 0.00, 0.00, 0.00, 0.000, 0.000, 0.000, 11:31:04.750, 1561476664750
61, -38034.26, -16754.58, 0.00, 0.00, 0.00, 0.00, 0.00, 0.00, 0.000, 0.000, 0.000, 11:31:04.750, 1561476664750
62, -39386.48, -18078.63, 0.00, 0.00, 0.00, 0.00, 0.00, 0.00, 0.000, 0.000, 0.000, 11:31:04.751, 1561476664751
63, -38819.59, -17525.64, 0.00, 0.00, 0.00, 0.00, 0.00, 0.00, 0.000, 0.000, 0.000, 11:31:04.751, 1561476664751
64, -37409.00, -16148.58, 0.00, 0.00, 0.00, 0.00, 0.00, 0.00, 0.000, 0.000, 0.000, 11:31:04.751, 1561476664751
65, -37786.50, -16512.42, 0.00, 0.00, 0.00, 0.00, 0.00, 0.00, 0.080, -0.032, 1.036, 11:31:04.751, 1561476664751
66, -39231.04, -17929.03, 0.00, 0.00, 0.00, 0.00, 0.00, 0.00, 0.000, 0.000, 0.000, 11:31:04.751, 1561476664751
67, -39051.07, -17757.77, 0.00, 0.00, 0.00, 0.00, 0.00, 0.00, 0.000, 0.000, 0.000, 11:31:04.751, 1561476664751
68, -37590.02, -16323.34, 0.00, 0.00, 0.00, 0.00, 0.00, 0.00, 0.000, 0.000, 0.000, 11:31:04.751, 1561476664751
69, -37571.18, -16301.66, 0.00, 0.00, 0.00, 0.00, 0.00, 0.00, 0.000, 0.000, 0.000, 11:31:04.751, 1561476664751
70, -39002.43, -17704.53, 0.00, 0.00, 0.00, 0.00, 0.00, 0.00, 0.000, 0.000, 0.000, 11:31:04.751, 1561476664751
71, -39176.30, -17874.82, 0.00, 0.00, 0.00, 0.00, 0.00, 0.00, 0.000, 0.000, 0.000, 11:31:04.751, 1561476664751
72, -37731.40, -16464.85, 0.00, 0.00, 0.00, 0.00, 0.00, 0.00, 0.000, 0.000, 0.000, 11:31:04.751, 1561476664751
73, -37367.38, -16104.41, 0.00, 0.00, 0.00, 0.00, 0.00, 0.00, 0.000, 0.000, 0.000, 11:31:04.751, 1561476664751
74, -38806.00, -17508.39, 0.00, 0.00, 0.00, 0.00, 0.00, 0.00, 0.000, 0.000, 0.000, 11:31:04.752, 1561476664752
75, -39431.38, -18125.92, 0.00, 0.00, 0.00, 0.00, 0.00, 0.00, 0.074, -0.038, 1.034, 11:31:04.752, 1561476664752
76, -38134.62, -16858.85, 0.00, 0.00, 0.00, 0.00, 0.00, 0.00, 0.000, 0.000, 0.000, 11:31:05.222, 1561476665222
77, -37390.27, -16122.85, 0.00, 0.00, 0.00, 0.00, 0.00, 0.00, 0.000, 0.000, 0.000, 11:31:05.222, 1561476665222
78, -38609.66, -17314.17, 0.00, 0.00, 0.00, 0.00, 0.00, 0.00, 0.000, 0.000, 0.000, 11:31:05.222, 1561476665222
79, -39498.86, -18185.74, 0.00, 0.00, 0.00, 0.00, 0.00, 0.00, 0.000, 0.000, 0.000, 11:31:05.222, 1561476665222
80, -38345.51, -17063.63, 0.00, 0.00, 0.00, 0.00, 0.00, 0.00, 0.000, 0.000, 0.000, 11:31:05.222, 1561476665222
81, -37266.19, -16006.55, 0.00, 0.00, 0.00, 0.00, 0.00, 0.00, 0.000, 0.000, 0.000, 11:31:05.222, 1561476665222
82, -38270.95, -16985.72, 0.00, 0.00, 0.00, 0.00, 0.00, 0.00, 0.000, 0.000, 0.000, 11:31:05.222, 1561476665222
83, -39462.47, -18152.90, 0.00, 0.00, 0.00, 0.00, 0.00, 0.00, 0.000, 0.000, 0.000, 11:31:05.223, 1561476665223
84, -38588.14, -17303.20, 0.00, 0.00, 0.00, 0.00, 0.00, 0.00, 0.000, 0.000, 0.000, 11:31:05.223, 1561476665223
85, -37303.25, -16038.65, 0.00, 0.00, 0.00, 0.00, 0.00, 0.00, 0.074, -0.034, 1.034, 11:31:05.223, 1561476665223
86, -38006.82, -16724.09, 0.00, 0.00, 0.00, 0.00, 0.00, 0.00, 0.000, 0.000, 0.000, 11:31:05.223, 1561476665223
87, -39393.20, -18079.97, 0.00, 0.00, 0.00, 0.00, 0.00, 0.00, 0.000, 0.000, 0.000, 11:31:05.223, 1561476665223
88, -38857.81, -17561.36, 0.00, 0.00, 0.00, 0.00, 0.00, 0.00, 0.000, 0.000, 0.000, 11:31:05.223, 1561476665223
89, -37441.00, -16177.19, 0.00, 0.00, 0.00, 0.00, 0.00, 0.00, 0.000, 0.000, 0.000, 11:31:05.223, 1561476665223
90, -37794.18, -16519.57, 0.00, 0.00, 0.00, 0.00, 0.00, 0.00, 0.000, 0.000, 0.000, 11:31:05.223, 1561476665223
91, -39240.01, -17937.92, 0.00, 0.00, 0.00, 0.00, 0.00, 0.00, 0.000, 0.000, 0.000, 11:31:05.223, 1561476665223
92, -39075.68, -17778.44, 0.00, 0.00, 0.00, 0.00, 0.00, 0.00, 0.000, 0.000, 0.000, 11:31:05.224, 1561476665224
93, -37607.10, -16335.55, 0.00, 0.00, 0.00, 0.00, 0.00, 0.00, 0.000, 0.000, 0.000, 11:31:05.224, 1561476665224
94, -37583.92, -16306.13, 0.00, 0.00, 0.00, 0.00, 0.00, 0.00, 0.000, 0.000, 0.000, 11:31:05.224, 1561476665224
95, -39036.29, -17732.67, 0.00, 0.00, 0.00, 0.00, 0.00, 0.00, 0.080, -0.036, 1.026, 11:31:05.224, 1561476665224
96, -39254.51, -17949.14, 0.00, 0.00, 0.00, 0.00, 0.00, 0.00, 0.000, 0.000, 0.000, 11:31:05.224, 1561476665224
97, -37846.71, -16569.55, 0.00, 0.00, 0.00, 0.00, 0.00, 0.00, 0.000, 0.000, 0.000, 11:31:05.224, 1561476665224
98, -37432.49, -16163.42, 0.00, 0.00, 0.00, 0.00, 0.00, 0.00, 0.000, 0.000, 0.000, 11:31:05.224, 1561476665224
99, -38796.52, -17502.22, 0.00, 0.00, 0.00, 0.00, 0.00, 0.00, 0.000, 0.000, 0.000, 11:31:05.224, 1561476665224
100, -39391.57, -18089.51, 0.00, 0.00, 0.00, 0.00, 0.00, 0.00, 0.000, 0.000, 0.000, 11:31:05.224, 1561476665224
101, -38075.52, -16798.77, 0.00, 0.00, 0.00, 0.00, 0.00, 0.00, 0.000, 0.000, 0.000, 11:31:05.224, 1561476665224
102, -37295.25, -16033.89, 0.00, 0.00, 0.00, 0.00, 0.00, 0.00, 0.000, 0.000, 0.000, 11:31:05.224, 1561476665224
103, -38535.84, -17248.97, 0.00, 0.00, 0.00, 0.00, 0.00, 0.00, 0.000, 0.000, 0.000, 11:31:05.224, 1561476665224
104, -39462.09, -18162.31, 0.00, 0.00, 0.00, 0.00, 0.00, 0.00, 0.000, 0.000, 0.000, 11:31:05.225, 1561476665225
105, -38345.18, -17071.46, 0.00, 0.00, 0.00, 0.00, 0.00, 0.00, 0.000, 0.000, 0.000, 11:31:05.225, 1561476665225
106, -37284.14, -16024.66, 0.00, 0.00, 0.00, 0.00, 0.00, 0.00, 0.074, -0.042, 1.032, 11:31:05.226, 1561476665226
107, -38270.99, -16988.53, 0.00, 0.00, 0.00, 0.00, 0.00, 0.00, 0.000, 0.000, 0.000, 11:31:05.226, 1561476665226
108, -39436.93, -18132.07, 0.00, 0.00, 0.00, 0.00, 0.00, 0.00, 0.000, 0.000, 0.000, 11:31:05.226, 1561476665226
109, -38584.18, -17302.33, 0.00, 0.00, 0.00, 0.00, 0.00, 0.00, 0.000, 0.000, 0.000, 11:31:05.226, 1561476665226
110, -37309.42, -16053.20, 0.00, 0.00, 0.00, 0.00, 0.00, 0.00, 0.000, 0.000, 0.000, 11:31:05.226, 1561476665226
111, -38011.73, -16739.51, 0.00, 0.00, 0.00, 0.00, 0.00, 0.00, 0.000, 0.000, 0.000, 11:31:05.226, 1561476665226
112, -39379.88, -18081.53, 0.00, 0.00, 0.00, 0.00, 0.00, 0.00, 0.000, 0.000, 0.000, 11:31:05.226, 1561476665226
113, -38847.60, -17562.57, 0.00, 0.00, 0.00, 0.00, 0.00, 0.00, 0.000, 0.000, 0.000, 11:31:05.227, 1561476665227
114, -37413.51, -16157.47, 0.00, 0.00, 0.00, 0.00, 0.00, 0.00, 0.000, 0.000, 0.000, 11:31:05.227, 1561476665227
115, -37773.31, -16503.77, 0.00, 0.00, 0.00, 0.00, 0.00, 0.00, 0.000, 0.000, 0.000, 11:31:05.227, 1561476665227
116, -39239.07, -17939.60, 0.00, 0.00, 0.00, 0.00, 0.00, 0.00, 0.070, -0.040, 1.030, 11:31:05.227, 1561476665227
117, -39088.06, -17790.63, 0.00, 0.00, 0.00, 0.00, 0.00, 0.00, 0.000, 0.000, 0.000, 11:31:05.227, 1561476665227
118, -37624.38, -16355.58, 0.00, 0.00, 0.00, 0.00, 0.00, 0.00, 0.000, 0.000, 0.000, 11:31:05.227, 1561476665227
119, -37552.85, -16288.92, 0.00, 0.00, 0.00, 0.00, 0.00, 0.00, 0.000, 0.000, 0.000, 11:31:05.227, 1561476665227
120, -38997.47, -17704.17, 0.00, 0.00, 0.00, 0.00, 0.00, 0.00, 0.000, 0.000, 0.000, 11:31:05.227, 1561476665227
121, -39256.86, -17961.57, 0.00, 0.00, 0.00, 0.00, 0.00, 0.00, 0.000, 0.000, 0.000, 11:31:05.227, 1561476665227
122, -37843.80, -16581.51, 0.00, 0.00, 0.00, 0.00, 0.00, 0.00, 0.000, 0.000, 0.000, 11:31:05.228, 1561476665228
123, -37406.63, -16149.11, 0.00, 0.00, 0.00, 0.00, 0.00, 0.00, 0.000, 0.000, 0.000, 11:31:05.228, 1561476665228
124, -38767.29, -17479.11, 0.00, 0.00, 0.00, 0.00, 0.00, 0.00, 0.000, 0.000, 0.000, 11:31:05.228, 1561476665228
125, -39399.42, -18101.43, 0.00, 0.00, 0.00, 0.00, 0.00, 0.00, 0.000, 0.000, 0.000, 11:31:05.228, 1561476665228
126, -38102.88, -16833.68, 0.00, 0.00, 0.00, 0.00, 0.00, 0.00, 0.068, -0.044, 1.032, 11:31:05.228, 1561476665228
127, -37303.92, -16045.24, 0.00, 0.00, 0.00, 0.00, 0.00, 0.00, 0.000, 0.000, 0.000, 11:31:05.228, 1561476665228
128, -38505.89, -17222.62, 0.00, 0.00, 0.00, 0.00, 0.00, 0.00, 0.000, 0.000, 0.000, 11:31:05.228, 1561476665228
129, -39454.61, -18155.83, 0.00, 0.00, 0.00, 0.00, 0.00, 0.00, 0.000, 0.000, 0.000, 11:31:05.228, 1561476665228
130, -38363.28, -17087.77, 0.00, 0.00, 0.00, 0.00, 0.00, 0.00, 0.000, 0.000, 0.000, 11:31:05.229, 1561476665229
131, -37283.09, -16029.69, 0.00, 0.00, 0.00, 0.00, 0.00, 0.00, 0.000, 0.000, 0.000, 11:31:05.229, 1561476665229
132, -38268.20, -16993.85, 0.00, 0.00, 0.00, 0.00, 0.00, 0.00, 0.000, 0.000, 0.000, 11:31:05.229, 1561476665229
133, -39477.89, -18180.06, 0.00, 0.00, 0.00, 0.00, 0.00, 0.00, 0.000, 0.000, 0.000, 11:31:05.229, 1561476665229
134, -38650.55, -17365.83, 0.00, 0.00, 0.00, 0.00, 0.00, 0.00, 0.000, 0.000, 0.000, 11:31:05.229, 1561476665229
135, -37325.67, -16067.42, 0.00, 0.00, 0.00, 0.00, 0.00, 0.00, 0.000, 0.000, 0.000, 11:31:05.229, 1561476665229
136, -37985.94, -16714.81, 0.00, 0.00, 0.00, 0.00, 0.00, 0.00, 0.074, -0.038, 1.036, 11:31:05.229, 1561476665229
137, -39373.07, -18073.08, 0.00, 0.00, 0.00, 0.00, 0.00, 0.00, 0.000, 0.000, 0.000, 11:31:05.230, 1561476665230
138, -38895.34, -17606.29, 0.00, 0.00, 0.00, 0.00, 0.00, 0.00, 0.000, 0.000, 0.000, 11:31:05.230, 1561476665230
139, -37459.40, -16200.59, 0.00, 0.00, 0.00, 0.00, 0.00, 0.00, 0.000, 0.000, 0.000, 11:31:05.230, 1561476665230
140, -37757.10, -16489.91, 0.00, 0.00, 0.00, 0.00, 0.00, 0.00, 0.000, 0.000, 0.000, 11:31:05.230, 1561476665230
141, -39222.15, -17921.76, 0.00, 0.00, 0.00, 0.00, 0.00, 0.00, 0.000, 0.000, 0.000, 11:31:05.230, 1561476665230
142, -39101.31, -17806.09, 0.00, 0.00, 0.00, 0.00, 0.00, 0.00, 0.000, 0.000, 0.000, 11:31:05.230, 1561476665230
143, -37637.79, -16374.87, 0.00, 0.00, 0.00, 0.00, 0.00, 0.00, 0.000, 0.000, 0.000, 11:31:05.231, 1561476665231
144, -37570.73, -16304.05, 0.00, 0.00, 0.00, 0.00, 0.00, 0.00, 0.000, 0.000, 0.000, 11:31:05.231, 1561476665231
145, -39016.11, -17722.65, 0.00, 0.00, 0.00, 0.00, 0.00, 0.00, 0.000, 0.000, 0.000, 11:31:05.231, 1561476665231
146, -39299.75, -18001.36, 0.00, 0.00, 0.00, 0.00, 0.00, 0.00, 0.076, -0.038, 1.032, 11:31:05.231, 1561476665231
147, -37888.64, -16619.42, 0.00, 0.00, 0.00, 0.00, 0.00, 0.00, 0.000, 0.000, 0.000, 11:31:05.231, 1561476665231
148, -37426.81, -16164.24, 0.00, 0.00, 0.00, 0.00, 0.00, 0.00, 0.000, 0.000, 0.000, 11:31:05.231, 1561476665231
149, -38777.28, -17485.01, 0.00, 0.00, 0.00, 0.00, 0.00, 0.00, 0.000, 0.000, 0.000, 11:31:05.231, 1561476665231
150, -39414.33, -18110.97, 0.00, 0.00, 0.00, 0.00, 0.00, 0.00, 0.000, 0.000, 0.000, 11:31:05.231, 1561476665231
151, -38135.05, -16860.23, 0.00, 0.00, 0.00, 0.00, 0.00, 0.00, 0.000, 0.000, 0.000, 11:31:05.231, 1561476665231
152, -37309.62, -16047.34, 0.00, 0.00, 0.00, 0.00, 0.00, 0.00, 0.000, 0.000, 0.000, 11:31:05.231, 1561476665231
153, -38507.83, -17216.99, 0.00, 0.00, 0.00, 0.00, 0.00, 0.00, 0.000, 0.000, 0.000, 11:31:05.232, 1561476665232
154, -39485.63, -18172.95, 0.00, 0.00, 0.00, 0.00, 0.00, 0.00, 0.000, 0.000, 0.000, 11:31:05.232, 1561476665232
155, -38407.58, -17122.64, 0.00, 0.00, 0.00, 0.00, 0.00, 0.00, 0.000, 0.000, 0.000, 11:31:05.232, 1561476665232
156, -37284.25, -16025.33, 0.00, 0.00, 0.00, 0.00, 0.00, 0.00, 0.000, 0.000, 0.000, 11:31:05.232, 1561476665232
157, -38233.46, -16956.93, 0.00, 0.00, 0.00, 0.00, 0.00, 0.00, 0.070, -0.034, 1.028, 11:31:05.232, 1561476665232
158, -39448.41, -18150.55, 0.00, 0.00, 0.00, 0.00, 0.00, 0.00, 0.000, 0.000, 0.000, 11:31:05.232, 1561476665232
159, -38661.36, -17379.17, 0.00, 0.00, 0.00, 0.00, 0.00, 0.00, 0.000, 0.000, 0.000, 11:31:05.232, 1561476665232
160, -37347.13, -16086.15, 0.00, 0.00, 0.00, 0.00, 0.00, 0.00, 0.000, 0.000, 0.000, 11:31:05.232, 1561476665232
161, -37988.73, -16706.16, 0.00, 0.00, 0.00, 0.00, 0.00, 0.00, 0.000, 0.000, 0.000, 11:31:05.232, 1561476665232
162, -39398.37, -18087.50, 0.00, 0.00, 0.00, 0.00, 0.00, 0.00, 0.000, 0.000, 0.000, 11:31:05.232, 1561476665232
163, -38939.42, -17640.87, 0.00, 0.00, 0.00, 0.00, 0.00, 0.00, 0.000, 0.000, 0.000, 11:31:05.232, 1561476665232
164, -37489.20, -16222.36, 0.00, 0.00, 0.00, 0.00, 0.00, 0.00, 0.000, 0.000, 0.000, 11:31:05.232, 1561476665232
165, -37766.20, -16496.08, 0.00, 0.00, 0.00, 0.00, 0.00, 0.00, 0.000, 0.000, 0.000, 11:31:05.232, 1561476665232
166, -39226.91, -17927.69, 0.00, 0.00, 0.00, 0.00, 0.00, 0.00, 0.000, 0.000, 0.000, 11:31:05.232, 1561476665232
167, -39119.78, -17823.17, 0.00, 0.00, 0.00, 0.00, 0.00, 0.00, 0.072, -0.036, 1.032, 11:31:05.232, 1561476665232
168, -37656.45, -16390.18, 0.00, 0.00, 0.00, 0.00, 0.00, 0.00, 0.000, 0.000, 0.000, 11:31:05.232, 1561476665232
169, -37575.61, -16303.12, 0.00, 0.00, 0.00, 0.00, 0.00, 0.00, 0.000, 0.000, 0.000, 11:31:05.232, 1561476665232
170, -39023.08, -17720.91, 0.00, 0.00, 0.00, 0.00, 0.00, 0.00, 0.000, 0.000, 0.000, 11:31:05.233, 1561476665233
171, -39307.71, -18006.30, 0.00, 0.00, 0.00, 0.00, 0.00, 0.00, 0.000, 0.000, 0.000, 11:31:05.233, 1561476665233
172, -37902.84, -16629.32, 0.00, 0.00, 0.00, 0.00, 0.00, 0.00, 0.000, 0.000, 0.000, 11:31:05.233, 1561476665233
173, -37399.56, -16128.37, 0.00, 0.00, 0.00, 0.00, 0.00, 0.00, 0.000, 0.000, 0.000, 11:31:05.233, 1561476665233
174, -38738.16, -17439.14, 0.00, 0.00, 0.00, 0.00, 0.00, 0.00, 0.000, 0.000, 0.000, 11:31:05.233, 1561476665233
175, -39430.93, -18124.72, 0.00, 0.00, 0.00, 0.00, 0.00, 0.00, 0.000, 0.000, 0.000, 11:31:05.233, 1561476665233
176, -38187.29, -16909.45, 0.00, 0.00, 0.00, 0.00, 0.00, 0.00, 0.000, 0.000, 0.000, 11:31:05.233, 1561476665233
177, -37344.71, -16080.40, 0.00, 0.00, 0.00, 0.00, 0.00, 0.00, 0.070, -0.040, 1.030, 11:31:05.234, 1561476665234
178, -38511.70, -17222.58, 0.00, 0.00, 0.00, 0.00, 0.00, 0.00, 0.000, 0.000, 0.000, 11:31:05.234, 1561476665234
179, -39493.90, -18186.99, 0.00, 0.00, 0.00, 0.00, 0.00, 0.00, 0.000, 0.000, 0.000, 11:31:05.234, 1561476665234
180, -38432.64, -17148.10, 0.00, 0.00, 0.00, 0.00, 0.00, 0.00, 0.000, 0.000, 0.000, 11:31:05.234, 1561476665234
181, -37301.48, -16035.83, 0.00, 0.00, 0.00, 0.00, 0.00, 0.00, 0.000, 0.000, 0.000, 11:31:05.234, 1561476665234
182, -38237.44, -16950.13, 0.00, 0.00, 0.00, 0.00, 0.00, 0.00, 0.000, 0.000, 0.000, 11:31:05.234, 1561476665234
183, -39459.66, -18158.40, 0.00, 0.00, 0.00, 0.00, 0.00, 0.00, 0.000, 0.000, 0.000, 11:31:05.234, 1561476665234
184, -38692.25, -17409.86, 0.00, 0.00, 0.00, 0.00, 0.00, 0.00, 0.000, 0.000, 0.000, 11:31:05.234, 1561476665234
185, -37376.59, -16121.55, 0.00, 0.00, 0.00, 0.00, 0.00, 0.00, 0.000, 0.000, 0.000, 11:31:05.234, 1561476665234
186, -37986.45, -16714.57, 0.00, 0.00, 0.00, 0.00, 0.00, 0.00, 0.000, 0.000, 0.000, 11:31:05.234, 1561476665234
187, -39380.51, -18077.35, 0.00, 0.00, 0.00, 0.00, 0.00, 0.00, 0.072, -0.038, 1.036, 11:31:05.234, 1561476665234
188, -38933.03, -17639.64, 0.00, 0.00, 0.00, 0.00, 0.00, 0.00, 0.000, 0.000, 0.000, 11:31:05.235, 1561476665235
189, -37484.68, -16219.19, 0.00, 0.00, 0.00, 0.00, 0.00, 0.00, 0.000, 0.000, 0.000, 11:31:05.235, 1561476665235
190, -37743.18, -16471.25, 0.00, 0.00, 0.00, 0.00, 0.00, 0.00, 0.000, 0.000, 0.000, 11:31:05.235, 1561476665235
191, -39226.28, -17924.29, 0.00, 0.00, 0.00, 0.00, 0.00, 0.00, 0.000, 0.000, 0.000, 11:31:05.235, 1561476665235
192, -39159.56, -17862.96, 0.00, 0.00, 0.00, 0.00, 0.00, 0.00, 0.000, 0.000, 0.000, 11:31:05.235, 1561476665235
193, -37710.07, -16443.06, 0.00, 0.00, 0.00, 0.00, 0.00, 0.00, 0.000, 0.000, 0.000, 11:31:05.235, 1561476665235
194, -37585.35, -16316.33, 0.00, 0.00, 0.00, 0.00, 0.00, 0.00, 0.000, 0.000, 0.000, 11:31:05.235, 1561476665235
195, -39024.96, -17724.08, 0.00, 0.00, 0.00, 0.00, 0.00, 0.00, 0.000, 0.000, 0.000, 11:31:05.235, 1561476665235
196, -39349.15, -18043.31, 0.00, 0.00, 0.00, 0.00, 0.00, 0.00, 0.000, 0.000, 0.000, 11:31:05.702, 1561476665702
197, -37943.67, -16669.97, 0.00, 0.00, 0.00, 0.00, 0.00, 0.00, 0.072, -0.036, 1.034, 11:31:05.702, 1561476665702
198, -37410.14, -16145.16, 0.00, 0.00, 0.00, 0.00, 0.00, 0.00, 0.000, 0.000, 0.000, 11:31:05.703, 1561476665703
199, -38728.48, -17438.12, 0.00, 0.00, 0.00, 0.00, 0.00, 0.00, 0.000, 0.000, 0.000, 11:31:05.703, 1561476665703
200, -39429.17, -18126.73, 0.00, 0.00, 0.00, 0.00, 0.00, 0.00, 0.000, 0.000, 0.000, 11:31:05.703, 1561476665703
201, -38196.49, -16920.56, 0.00, 0.00, 0.00, 0.00, 0.00, 0.00, 0.000, 0.000, 0.000, 11:31:05.703, 1561476665703
202, -37355.95, -16098.20, 0.00, 0.00, 0.00, 0.00, 0.00, 0.00, 0.000, 0.000, 0.000, 11:31:05.703, 1561476665703
203, -38502.13, -17214.87, 0.00, 0.00, 0.00, 0.00, 0.00, 0.00, 0.000, 0.000, 0.000, 11:31:05.703, 1561476665703
204, -39509.05, -18197.27, 0.00, 0.00, 0.00, 0.00, 0.00, 0.00, 0.000, 0.000, 0.000, 11:31:05.703, 1561476665703
205, -38476.11, -17190.93, 0.00, 0.00, 0.00, 0.00, 0.00, 0.00, 0.000, 0.000, 0.000, 11:31:05.703, 1561476665703
206, -37341.61, -16081.12, 0.00, 0.00, 0.00, 0.00, 0.00, 0.00, 0.000, 0.000, 0.000, 11:31:05.703, 1561476665703
207, -38237.53, -16953.93, 0.00, 0.00, 0.00, 0.00, 0.00, 0.00, 0.074, -0.034, 1.032, 11:31:05.703, 1561476665703
208, -39485.07, -18176.46, 0.00, 0.00, 0.00, 0.00, 0.00, 0.00, 0.000, 0.000, 0.000, 11:31:05.703, 1561476665703
209, -38724.55, -17435.16, 0.00, 0.00, 0.00, 0.00, 0.00, 0.00, 0.000, 0.000, 0.000, 11:31:05.703, 1561476665703
210, -37384.63, -16124.97, 0.00, 0.00, 0.00, 0.00, 0.00, 0.00, 0.000, 0.000, 0.000, 11:31:05.703, 1561476665703
211, -37982.36, -16707.95, 0.00, 0.00, 0.00, 0.00, 0.00, 0.00, 0.000, 0.000, 0.000, 11:31:05.703, 1561476665703
212, -39377.47, -18072.55, 0.00, 0.00, 0.00, 0.00, 0.00, 0.00, 0.000, 0.000, 0.000, 11:31:05.703, 1561476665703
213, -38954.21, -17661.39, 0.00, 0.00, 0.00, 0.00, 0.00, 0.00, 0.000, 0.000, 0.000, 11:31:05.703, 1561476665703
214, -37503.45, -16240.73, 0.00, 0.00, 0.00, 0.00, 0.00, 0.00, 0.000, 0.000, 0.000, 11:31:05.703, 1561476665703
215, -37730.55, -16459.06, 0.00, 0.00, 0.00, 0.00, 0.00, 0.00, 0.000, 0.000, 0.000, 11:31:05.703, 1561476665703
216, -39192.98, -17891.43, 0.00, 0.00, 0.00, 0.00, 0.00, 0.00, 0.000, 0.000, 0.000, 11:31:05.703, 1561476665703
217, -39160.61, -17869.08, 0.00, 0.00, 0.00, 0.00, 0.00, 0.00, 0.000, 0.000, 0.000, 11:31:05.703, 1561476665703
218, -37719.53, -16460.81, 0.00, 0.00, 0.00, 0.00, 0.00, 0.00, 0.080, -0.034, 1.034, 11:31:05.703, 1561476665703
219, -37570.35, -16311.10, 0.00, 0.00, 0.00, 0.00, 0.00, 0.00, 0.000, 0.000, 0.000, 11:31:05.704, 1561476665704
220, -39007.82, -17714.12, 0.00, 0.00, 0.00, 0.00, 0.00, 0.00, 0.000, 0.000, 0.000, 11:31:05.704, 1561476665704
221, -39363.72, -18064.43, 0.00, 0.00, 0.00, 0.00, 0.00, 0.00, 0.000, 0.000, 0.000, 11:31:05.704, 1561476665704
222, -37975.59, -16700.02, 0.00, 0.00, 0.00, 0.00, 0.00, 0.00, 0.000, 0.000, 0.000, 11:31:05.704, 1561476665704
223, -37408.91, -16144.89, 0.00, 0.00, 0.00, 0.00, 0.00, 0.00, 0.000, 0.000, 0.000, 11:31:05.704, 1561476665704
224, -38739.62, -17448.49, 0.00, 0.00, 0.00, 0.00, 0.00, 0.00, 0.000, 0.000, 0.000, 11:31:05.705, 1561476665705
225, -39480.89, -18179.52, 0.00, 0.00, 0.00, 0.00, 0.00, 0.00, 0.000, 0.000, 0.000, 11:31:05.705, 1561476665705
226, -38237.60, -16966.22, 0.00, 0.00, 0.00, 0.00, 0.00, 0.00, 0.000, 0.000, 0.000, 11:31:05.705, 1561476665705
227, -37349.99, -16094.44, 0.00, 0.00, 0.00, 0.00, 0.00, 0.00, 0.000, 0.000, 0.000, 11:31:05.705, 1561476665705
228, -38482.95, -17204.72, 0.00, 0.00, 0.00, 0.00, 0.00, 0.00, 0.080, -0.036, 1.028, 11:31:05.706, 1561476665706
229, -39510.48, -18210.01, 0.00, 0.00, 0.00, 0.00, 0.00, 0.00, 0.000, 0.000, 0.000, 11:31:05.706, 1561476665706
230, -38505.44, -17221.06, 0.00, 0.00, 0.00, 0.00, 0.00, 0.00, 0.000, 0.000, 0.000, 11:31:05.706, 1561476665706
231, -37354.77, -16085.50, 0.00, 0.00, 0.00, 0.00, 0.00, 0.00, 0.000, 0.000, 0.000, 11:31:05.706, 1561476665706
232, -38229.57, -16944.59, 0.00, 0.00, 0.00, 0.00, 0.00, 0.00, 0.000, 0.000, 0.000, 11:31:05.706, 1561476665706
233, -39487.21, -18180.82, 0.00, 0.00, 0.00, 0.00, 0.00, 0.00, 0.000, 0.000, 0.000, 11:31:05.706, 1561476665706
234, -38761.34, -17474.15, 0.00, 0.00, 0.00, 0.00, 0.00, 0.00, 0.000, 0.000, 0.000, 11:31:05.706, 1561476665706
235, -37395.92, -16137.83, 0.00, 0.00, 0.00, 0.00, 0.00, 0.00, 0.000, 0.000, 0.000, 11:31:05.706, 1561476665706
236, -37946.31, -16680.28, 0.00, 0.00, 0.00, 0.00, 0.00, 0.00, 0.000, 0.000, 0.000, 11:31:05.706, 1561476665706
237, -39352.26, -18059.67, 0.00, 0.00, 0.00, 0.00, 0.00, 0.00, 0.000, 0.000, 0.000, 11:31:05.706, 1561476665706
238, -38981.29, -17694.02, 0.00, 0.00, 0.00, 0.00, 0.00, 0.00, 0.076, -0.038, 1.024, 11:31:05.706, 1561476665706
239, -37551.36, -16286.82, 0.00, 0.00, 0.00, 0.00, 0.00, 0.00, 0.000, 0.000, 0.000, 11:31:05.706, 1561476665706
240, -37761.86, -16489.08, 0.00, 0.00, 0.00, 0.00, 0.00, 0.00, 0.000, 0.000, 0.000, 11:31:05.706, 1561476665706
241, -39222.66, -17916.02, 0.00, 0.00, 0.00, 0.00, 0.00, 0.00, 0.000, 0.000, 0.000, 11:31:05.706, 1561476665706
242, -39217.90, -17915.97, 0.00, 0.00, 0.00, 0.00, 0.00, 0.00, 0.000, 0.000, 0.000, 11:31:05.706, 1561476665706
243, -37755.78, -16484.77, 0.00, 0.00, 0.00, 0.00, 0.00, 0.00, 0.000, 0.000, 0.000, 11:31:05.706, 1561476665706
244, -37556.54, -16292.23, 0.00, 0.00, 0.00, 0.00, 0.00, 0.00, 0.000, 0.000, 0.000, 11:31:05.706, 1561476665706
245, -38994.72, -17698.36, 0.00, 0.00, 0.00, 0.00, 0.00, 0.00, 0.000, 0.000, 0.000, 11:31:05.706, 1561476665706
246, -39383.41, -18081.31, 0.00, 0.00, 0.00, 0.00, 0.00, 0.00, 0.000, 0.000, 0.000, 11:31:05.706, 1561476665706
247, -37987.04, -16719.86, 0.00, 0.00, 0.00, 0.00, 0.00, 0.00, 0.000, 0.000, 0.000, 11:31:05.706, 1561476665706
248, -37393.37, -16133.51, 0.00, 0.00, 0.00, 0.00, 0.00, 0.00, 0.072, -0.038, 1.020, 11:31:05.706, 1561476665706
249, -38714.41, -17421.96, 0.00, 0.00, 0.00, 0.00, 0.00, 0.00, 0.000, 0.000, 0.000, 11:31:05.707, 1561476665707
250, -39473.05, -18171.81, 0.00, 0.00, 0.00, 0.00, 0.00, 0.00, 0.000, 0.000, 0.000, 11:31:05.707, 1561476665707
251, -38253.98, -16975.30, 0.00, 0.00, 0.00, 0.00, 0.00, 0.00, 0.000, 0.000, 0.000, 11:31:05.707, 1561476665707
252, -37316.06, -16049.22, 0.00, 0.00, 0.00, 0.00, 0.00, 0.00, 0.000, 0.000, 0.000, 11:31:05.707, 1561476665707
253, -38405.86, -17114.46, 0.00, 0.00, 0.00, 0.00, 0.00, 0.00, 0.000, 0.000, 0.000, 11:31:05.707, 1561476665707
254, -39457.24, -18152.03, 0.00, 0.00, 0.00, 0.00, 0.00, 0.00, 0.000, 0.000, 0.000, 11:31:05.707, 1561476665707
255, -38506.45, -17229.39, 0.00, 0.00, 0.00, 0.00, 0.00, 0.00, 0.000, 0.000, 0.000, 11:31:05.707, 1561476665707
0, -37361.75, -16101.41, 0.00, 0.00, 0.00, 0.00, 0.00, 0.00, 0.000, 0.000, 0.000, 11:31:05.707, 1561476665707
1, -38256.21, -16969.91, 0.00, 0.00, 0.00, 0.00, 0.00, 0.00, 0.000, 0.000, 0.000, 11:31:05.707, 1561476665707
2, -39553.91, -18245.88, 0.00, 0.00, 0.00, 0.00, 0.00, 0.00, 0.072, -0.042, 1.024, 11:31:05.707, 1561476665707
3, -38856.67, -17566.91, 0.00, 0.00, 0.00, 0.00, 0.00, 0.00, 0.000, 0.000, 0.000, 11:31:05.707, 1561476665707
4, -37452.61, -16190.64, 0.00, 0.00, 0.00, 0.00, 0.00, 0.00, 0.000, 0.000, 0.000, 11:31:05.707, 1561476665707
5, -37948.63, -16671.90, 0.00, 0.00, 0.00, 0.00, 0.00, 0.00, 0.000, 0.000, 0.000, 11:31:05.707, 1561476665707
6, -39365.80, -18058.55, 0.00, 0.00, 0.00, 0.00, 0.00, 0.00, 0.000, 0.000, 0.000, 11:31:05.707, 1561476665707
7, -39009.56, -17718.74, 0.00, 0.00, 0.00, 0.00, 0.00, 0.00, 0.000, 0.000, 0.000, 11:31:05.707, 1561476665707
8, -37554.30, -16294.78, 0.00, 0.00, 0.00, 0.00, 0.00, 0.00, 0.000, 0.000, 0.000, 11:31:05.708, 1561476665708
9, -37716.24, -16448.00, 0.00, 0.00, 0.00, 0.00, 0.00, 0.00, 0.000, 0.000, 0.000, 11:31:05.708, 1561476665708
10, -39200.93, -17899.75, 0.00, 0.00, 0.00, 0.00, 0.00, 0.00, 0.000, 0.000, 0.000, 11:31:05.708, 1561476665708
11, -39230.13, -17935.80, 0.00, 0.00, 0.00, 0.00, 0.00, 0.00, 0.000, 0.000, 0.000, 11:31:05.708, 1561476665708
12, -37770.85, -16509.36, 0.00, 0.00, 0.00, 0.00, 0.00, 0.00, 0.000, 0.000, 0.000, 11:31:05.708, 1561476665708
13, -37539.17, -16280.12, 0.00, 0.00, 0.00, 0.00, 0.00, 0.00, 0.070, -0.040, 1.024, 11:31:05.708, 1561476665708
14, -38983.34, -17690.13, 0.00, 0.00, 0.00, 0.00, 0.00, 0.00, 0.000, 0.000, 0.000, 11:31:05.708, 1561476665708
15, -39407.62, -18107.30, 0.00, 0.00, 0.00, 0.00, 0.00, 0.00, 0.000, 0.000, 0.000, 11:31:05.708, 1561476665708
16, -38012.92, -16740.67, 0.00, 0.00, 0.00, 0.00, 0.00, 0.00, 0.000, 0.000, 0.000, 11:31:05.708, 1561476665708
17, -37388.01, -16121.11, 0.00, 0.00, 0.00, 0.00, 0.00, 0.00, 0.000, 0.000, 0.000, 11:31:05.708, 1561476665708
18, -38685.41, -17395.27, 0.00, 0.00, 0.00, 0.00, 0.00, 0.00, 0.000, 0.000, 0.000, 11:31:05.708, 1561476665708
19, -39474.32, -18178.81, 0.00, 0.00, 0.00, 0.00, 0.00, 0.00, 0.000, 0.000, 0.000, 11:31:05.708, 1561476665708
20, -38273.52, -17000.78, 0.00, 0.00, 0.00, 0.00, 0.00, 0.00, 0.000, 0.000, 0.000, 11:31:05.708, 1561476665708
21, -37348.02, -16089.37, 0.00, 0.00, 0.00, 0.00, 0.00, 0.00, 0.000, 0.000, 0.000, 11:31:05.708, 1561476665708
22, -38459.39, -17176.89, 0.00, 0.00, 0.00, 0.00, 0.00, 0.00, 0.000, 0.000, 0.000, 11:31:05.708, 1561476665708
23, -39517.01, -18222.82, 0.00, 0.00, 0.00, 0.00, 0.00, 0.00, 0.074, -0.036, 1.028, 11:31:05.708, 1561476665708
24, -38509.24, -17238.22, 0.00, 0.00, 0.00, 0.00, 0.00, 0.00, 0.000, 0.000, 0.000, 11:31:05.708, 1561476665708
25, -37296.23, -16046.72, 0.00, 0.00, 0.00, 0.00, 0.00, 0.00, 0.000, 0.000, 0.000, 11:31:05.708, 1561476665708
26, -38144.77, -16875.66, 0.00, 0.00, 0.00, 0.00, 0.00, 0.00, 0.000, 0.000, 0.000, 11:31:05.708, 1561476665708
27, -39456.28, -18163.63, 0.00, 0.00, 0.00, 0.00, 0.00, 0.00, 0.000, 0.000, 0.000, 11:31:05.708, 1561476665708
28, -38791.16, -17512.77, 0.00, 0.00, 0.00, 0.00, 0.00, 0.00, 0.000, 0.000, 0.000, 11:31:05.708, 1561476665708
29, -37409.58, -16153.25, 0.00, 0.00, 0.00, 0.00, 0.00, 0.00, 0.000, 0.000, 0.000, 11:31:05.708, 1561476665708
30, -37909.52, -16641.59, 0.00, 0.00, 0.00, 0.00, 0.00, 0.00, 0.000, 0.000, 0.000, 11:31:05.708, 1561476665708
31, -39343.29, -18047.07, 0.00, 0.00, 0.00, 0.00, 0.00, 0.00, 0.000, 0.000, 0.000, 11:31:05.708, 1561476665708
32, -39017.85, -17731.44, 0.00, 0.00, 0.00, 0.00, 0.00, 0.00, 0.000, 0.000, 0.000, 11:31:05.708, 1561476665708
33, -37531.24, -16271.60, 0.00, 0.00, 0.00, 0.00, 0.00, 0.00, 0.072, -0.042, 1.024, 11:31:05.708, 1561476665708
34, -37664.88, -16399.16, 0.00, 0.00, 0.00, 0.00, 0.00, 0.00, 0.000, 0.000, 0.000, 11:31:05.709, 1561476665709
35, -39151.56, -17859.24, 0.00, 0.00, 0.00, 0.00, 0.00, 0.00, 0.000, 0.000, 0.000, 11:31:05.709, 1561476665709
36, -39213.34, -17921.38, 0.00, 0.00, 0.00, 0.00, 0.00, 0.00, 0.000, 0.000, 0.000, 11:31:05.709, 1561476665709
37, -37742.71, -16478.85, 0.00, 0.00, 0.00, 0.00, 0.00, 0.00, 0.000, 0.000, 0.000, 11:31:05.709, 1561476665709
38, -37486.38, -16220.86, 0.00, 0.00, 0.00, 0.00, 0.00, 0.00, 0.000, 0.000, 0.000, 11:31:05.709, 1561476665709
39, -38922.88, -17627.19, 0.00, 0.00, 0.00, 0.00, 0.00, 0.00, 0.000, 0.000, 0.000, 11:31:05.709, 1561476665709
40, -39386.86, -18086.38, 0.00, 0.00, 0.00, 0.00, 0.00, 0.00, 0.000, 0.000, 0.000, 11:31:05.709, 1561476665709
41, -38012.31, -16742.80, 0.00, 0.00, 0.00, 0.00, 0.00, 0.00, 0.000, 0.000, 0.000, 11:31:05.709, 1561476665709
42, -37353.65, -16095.92, 0.00, 0.00, 0.00, 0.00, 0.00, 0.00, 0.000, 0.000, 0.000, 11:31:05.709, 1561476665709
43, -38646.41, -17361.02, 0.00, 0.00, 0.00, 0.00, 0.00, 0.00, 0.070, -0.034, 1.028, 11:31:05.709, 1561476665709
44, -39463.32, -18160.63, 0.00, 0.00, 0.00, 0.00, 0.00, 0.00, 0.000, 0.000, 0.000, 11:31:05.709, 1561476665709
45, -38249.22, -16973.06, 0.00, 0.00, 0.00, 0.00, 0.00, 0.00, 0.000, 0.000, 0.000, 11:31:05.709, 1561476665709
46, -37257.63, -16005.55, 0.00, 0.00, 0.00, 0.00, 0.00, 0.00, 0.000, 0.000, 0.000, 11:31:05.709, 1561476665709
47, -38347.01, -17067.41, 0.00, 0.00, 0.00, 0.00, 0.00, 0.00, 0.000, 0.000, 0.000, 11:31:05.709, 1561476665709
48, -39462.03, -18163.23, 0.00, 0.00, 0.00, 0.00, 0.00, 0.00, 0.000, 0.000, 0.000, 11:31:05.709, 1561476665709
