%OpenBCI Raw EEG Data
%Number of channels = 8
%Sample Rate = 250.0 Hz
%First Column = SampleIndex
%Last Column = Timestamp 
%Other Columns = EEG data in microvolts followed by Accel Data (in G) interleaved with Aux Data
0, 0.00, 0.00, 0.00, 0.00, 0.00, 0.00, 0.00, 0.00, 0.070, -0.042, 1.044, 11:27:37.305, 1561476457305
1, -40411.39, -18408.81, 0.00, 0.00, 0.00, 0.00, 0.00, 0.00, 0.000, 0.000, 0.000, 11:27:37.794, 1561476457794
2, -41498.98, -19470.22, 0.00, 0.00, 0.00, 0.00, 0.00, 0.00, 0.000, 0.000, 0.000, 11:27:37.794, 1561476457794
3, -41347.73, -19334.28, 0.00, 0.00, 0.00, 0.00, 0.00, 0.00, 0.000, 0.000, 0.000, 11:27:37.794, 1561476457794
4, -40230.95, -18250.40, 0.00, 0.00, 0.00, 0.00, 0.00, 0.00, 0.000, 0.000, 0.000, 11:27:37.795, 1561476457795
5, -40212.38, -18229.12, 0.00, 0.00, 0.00, 0.00, 0.00, 0.00, 0.000, 0.000, 0.000, 11:27:37.795, 1561476457795
6, -41315.95, -19297.69, 0.00, 0.00, 0.00, 0.00, 0.00, 0.00, 0.000, 0.000, 0.000, 11:27:37.795, 1561476457795
7, -41491.74, -19464.44, 0.00, 0.00, 0.00, 0.00, 0.00, 0.00, 0.000, 0.000, 0.000, 11:27:37.795, 1561476457795
8, -40434.77, -18437.21, 0.00, 0.00, 0.00, 0.00, 0.00, 0.00, 0.066, -0.040, 1.038, 11:27:37.795, 1561476457795
9, -40116.98, -18130.73, 0.00, 0.00, 0.00, 0.00, 0.00, 0.00, 0.000, 0.000, 0.000, 11:27:37.796, 1561476457796
10, -41143.05, -19129.65, 0.00, 0.00, 0.00, 0.00, 0.00, 0.00, 0.000, 0.000, 0.000, 11:27:37.796, 1561476457796
11, -41580.43, -19557.35, 0.00, 0.00, 0.00, 0.00, 0.00, 0.00, 0.000, 0.000, 0.000, 11:27:37.796, 1561476457796
12, -40608.94, -18610.75, 0.00, 0.00, 0.00, 0.00, 0.00, 0.00, 0.000, 0.000, 0.000, 11:27:37.797, 1561476457797
13, -40022.94, -18037.01, 0.00, 0.00, 0.00, 0.00, 0.00, 0.00, 0.000, 0.000, 0.000, 11:27:37.797, 1561476457797
14, -40928.73, -18922.70, 0.00, 0.00, 0.00, 0.00, 0.00, 0.00, 0.000, 0.000, 0.000, 11:27:37.797, 1561476457797
15, -41635.78, -19606.70, 0.00, 0.00, 0.00, 0.00, 0.00, 0.00, 0.000, 0.000, 0.000, 11:27:37.798, 1561476457798
16, -40817.43, -18814.38, 0.00, 0.00, 0.00, 0.00, 0.00, 0.00, 0.000, 0.000, 0.000, 11:27:37.798, 1561476457798
17, -40014.98, -18035.33, 0.00, 0.00, 0.00, 0.00, 0.00, 0.00, 0.000, 0.000, 0.000, 11:27:37.798, 1561476457798
18, -40763.12, -18762.10, 0.00, 0.00, 0.00, 0.00, 0.00, 0.00, 0.070, -0.040, 1.038, 11:27:37.798, 1561476457798
19, -41647.18, -19622.46, 0.00, 0.00, 0.00, 0.00, 0.00, 0.00, 0.000, 0.000, 0.000, 11:27:37.798, 1561476457798
20, -41005.35, -19002.04, 0.00, 0.00, 0.00, 0.00, 0.00, 0.00, 0.000, 0.000, 0.000, 11:27:37.798, 1561476457798
21, -40026.59, -18047.94, 0.00, 0.00, 0.00, 0.00, 0.00, 0.00, 0.000, 0.000, 0.000, 11:27:37.799, 1561476457799
22, -40536.77, -18539.14, 0.00, 0.00, 0.00, 0.00, 0.00, 0.00, 0.000, 0.000, 0.000, 11:27:37.799, 1561476457799
23, -41544.76, -19523.58, 0.00, 0.00, 0.00, 0.00, 0.00, 0.00, 0.000, 0.000, 0.000, 11:27:37.799, 1561476457799
24, -41153.45, -19146.15, 0.00, 0.00, 0.00, 0.00, 0.00, 0.00, 0.000, 0.000, 0.000, 11:27:37.799, 1561476457799
25, -40087.23, -18107.57, 0.00, 0.00, 0.00, 0.00, 0.00, 0.00, 0.000, 0.000, 0.000, 11:27:37.799, 1561476457799
26, -40352.30, -18362.43, 0.00, 0.00, 0.00, 0.00, 0.00, 0.00, 0.000, 0.000, 0.000, 11:27:37.799, 1561476457799
27, -41451.58, -19430.84, 0.00, 0.00, 0.00, 0.00, 0.00, 0.00, 0.000, 0.000, 0.000, 11:27:37.799, 1561476457799
28, -41339.17, -19325.32, 0.00, 0.00, 0.00, 0.00, 0.00, 0.00, 0.074, -0.044, 1.038, 11:27:37.799, 1561476457799
29, -40247.36, -18264.17, 0.00, 0.00, 0.00, 0.00, 0.00, 0.00, 0.000, 0.000, 0.000, 11:27:37.799, 1561476457799
30, -40214.79, -18229.23, 0.00, 0.00, 0.00, 0.00, 0.00, 0.00, 0.000, 0.000, 0.000, 11:27:37.799, 1561476457799
31, -41303.92, -19283.97, 0.00, 0.00, 0.00, 0.00, 0.00, 0.00, 0.000, 0.000, 0.000, 11:27:37.799, 1561476457799
32, -41494.52, -19471.21, 0.00, 0.00, 0.00, 0.00, 0.00, 0.00, 0.000, 0.000, 0.000, 11:27:37.799, 1561476457799
33, -40442.84, -18453.58, 0.00, 0.00, 0.00, 0.00, 0.00, 0.00, 0.000, 0.000, 0.000, 11:27:37.800, 1561476457800
34, -40114.56, -18132.34, 0.00, 0.00, 0.00, 0.00, 0.00, 0.00, 0.000, 0.000, 0.000, 11:27:37.800, 1561476457800
35, -41134.56, -19121.31, 0.00, 0.00, 0.00, 0.00, 0.00, 0.00, 0.000, 0.000, 0.000, 11:27:37.800, 1561476457800
36, -41588.30, -19561.66, 0.00, 0.00, 0.00, 0.00, 0.00, 0.00, 0.000, 0.000, 0.000, 11:27:37.800, 1561476457800
37, -40621.86, -18625.62, 0.00, 0.00, 0.00, 0.00, 0.00, 0.00, 0.000, 0.000, 0.000, 11:27:37.800, 1561476457800
38, -40029.76, -18053.75, 0.00, 0.00, 0.00, 0.00, 0.00, 0.00, 0.074, -0.042, 1.026, 11:27:37.800, 1561476457800
39, -40923.65, -18923.32, 0.00, 0.00, 0.00, 0.00, 0.00, 0.00, 0.000, 0.000, 0.000, 11:27:37.800, 1561476457800
40, -41631.48, -19605.70, 0.00, 0.00, 0.00, 0.00, 0.00, 0.00, 0.000, 0.000, 0.000, 11:27:37.800, 1561476457800
41, -40797.34, -18796.68, 0.00, 0.00, 0.00, 0.00, 0.00, 0.00, 0.000, 0.000, 0.000, 11:27:37.800, 1561476457800
42, -39967.15, -17993.76, 0.00, 0.00, 0.00, 0.00, 0.00, 0.00, 0.000, 0.000, 0.000, 11:27:37.800, 1561476457800
43, -40691.73, -18692.23, 0.00, 0.00, 0.00, 0.00, 0.00, 0.00, 0.000, 0.000, 0.000, 11:27:37.800, 1561476457800
44, -41626.64, -19598.99, 0.00, 0.00, 0.00, 0.00, 0.00, 0.00, 0.000, 0.000, 0.000, 11:27:37.801, 1561476457801
45, -41014.45, -19001.37, 0.00, 0.00, 0.00, 0.00, 0.00, 0.00, 0.000, 0.000, 0.000, 11:27:37.801, 1561476457801
46, -40018.76, -18041.68, 0.00, 0.00, 0.00, 0.00, 0.00, 0.00, 0.000, 0.000, 0.000, 11:27:37.801, 1561476457801
47, -40524.76, -18525.39, 0.00, 0.00, 0.00, 0.00, 0.00, 0.00, 0.000, 0.000, 0.000, 11:27:37.801, 1561476457801
48, -41564.32, -19535.18, 0.00, 0.00, 0.00, 0.00, 0.00, 0.00, 0.000, 0.000, 0.000, 11:27:37.801, 1561476457801
49, -41177.97, -19164.97, 0.00, 0.00, 0.00, 0.00, 0.00, 0.00, 0.074, -0.042, 1.028, 11:27:37.801, 1561476457801
50, -40104.32, -18119.55, 0.00, 0.00, 0.00, 0.00, 0.00, 0.00, 0.000, 0.000, 0.000, 11:27:37.801, 1561476457801
51, -40371.36, -18376.84, 0.00, 0.00, 0.00, 0.00, 0.00, 0.00, 0.000, 0.000, 0.000, 11:27:37.801, 1561476457801
52, -41460.16, -19437.17, 0.00, 0.00, 0.00, 0.00, 0.00, 0.00, 0.000, 0.000, 0.000, 11:27:37.802, 1561476457802
53, -41368.03, -19347.36, 0.00, 0.00, 0.00, 0.00, 0.00, 0.00, 0.000, 0.000, 0.000, 11:27:37.802, 1561476457802
54, -40269.55, -18280.91, 0.00, 0.00, 0.00, 0.00, 0.00, 0.00, 0.000, 0.000, 0.000, 11:27:37.802, 1561476457802
55, -40215.79, -18229.32, 0.00, 0.00, 0.00, 0.00, 0.00, 0.00, 0.000, 0.000, 0.000, 11:27:37.802, 1561476457802
56, -41292.72, -19274.89, 0.00, 0.00, 0.00, 0.00, 0.00, 0.00, 0.000, 0.000, 0.000, 11:27:37.802, 1561476457802
57, -41476.70, -19453.57, 0.00, 0.00, 0.00, 0.00, 0.00, 0.00, 0.000, 0.000, 0.000, 11:27:37.802, 1561476457802
58, -40420.47, -18428.70, 0.00, 0.00, 0.00, 0.00, 0.00, 0.00, 0.000, 0.000, 0.000, 11:27:37.802, 1561476457802
59, -40087.34, -18103.33, 0.00, 0.00, 0.00, 0.00, 0.00, 0.00, 0.072, -0.042, 1.032, 11:27:37.803, 1561476457803
60, -41107.41, -19097.38, 0.00, 0.00, 0.00, 0.00, 0.00, 0.00, 0.000, 0.000, 0.000, 11:27:37.803, 1561476457803
61, -41588.13, -19563.59, 0.00, 0.00, 0.00, 0.00, 0.00, 0.00, 0.000, 0.000, 0.000, 11:27:37.803, 1561476457803
62, -40630.38, -18635.68, 0.00, 0.00, 0.00, 0.00, 0.00, 0.00, 0.000, 0.000, 0.000, 11:27:37.803, 1561476457803
63, -40029.49, -18049.86, 0.00, 0.00, 0.00, 0.00, 0.00, 0.00, 0.000, 0.000, 0.000, 11:27:37.803, 1561476457803
64, -40924.81, -18914.83, 0.00, 0.00, 0.00, 0.00, 0.00, 0.00, 0.000, 0.000, 0.000, 11:27:37.803, 1561476457803
65, -41646.64, -19616.70, 0.00, 0.00, 0.00, 0.00, 0.00, 0.00, 0.000, 0.000, 0.000, 11:27:37.803, 1561476457803
66, -40817.43, -18811.03, 0.00, 0.00, 0.00, 0.00, 0.00, 0.00, 0.000, 0.000, 0.000, 11:27:37.803, 1561476457803
67, -39996.32, -18016.73, 0.00, 0.00, 0.00, 0.00, 0.00, 0.00, 0.000, 0.000, 0.000, 11:27:37.803, 1561476457803
68, -40717.37, -18717.06, 0.00, 0.00, 0.00, 0.00, 0.00, 0.00, 0.000, 0.000, 0.000, 11:27:37.803, 1561476457803
69, -41625.56, -19598.17, 0.00, 0.00, 0.00, 0.00, 0.00, 0.00, 0.074, -0.044, 1.034, 11:27:37.803, 1561476457803
70, -41016.01, -19005.22, 0.00, 0.00, 0.00, 0.00, 0.00, 0.00, 0.000, 0.000, 0.000, 11:27:37.804, 1561476457804
71, -40062.64, -18074.89, 0.00, 0.00, 0.00, 0.00, 0.00, 0.00, 0.000, 0.000, 0.000, 11:27:37.804, 1561476457804
72, -40554.49, -18549.69, 0.00, 0.00, 0.00, 0.00, 0.00, 0.00, 0.000, 0.000, 0.000, 11:27:37.804, 1561476457804
73, -41576.86, -19543.78, 0.00, 0.00, 0.00, 0.00, 0.00, 0.00, 0.000, 0.000, 0.000, 11:27:37.805, 1561476457805
74, -41186.51, -19168.61, 0.00, 0.00, 0.00, 0.00, 0.00, 0.00, 0.000, 0.000, 0.000, 11:27:37.805, 1561476457805
75, -40100.68, -18112.67, 0.00, 0.00, 0.00, 0.00, 0.00, 0.00, 0.000, 0.000, 0.000, 11:27:37.805, 1561476457805
76, -40351.40, -18352.39, 0.00, 0.00, 0.00, 0.00, 0.00, 0.00, 0.000, 0.000, 0.000, 11:27:37.805, 1561476457805
77, -41467.11, -19435.22, 0.00, 0.00, 0.00, 0.00, 0.00, 0.00, 0.000, 0.000, 0.000, 11:27:37.805, 1561476457805
78, -41391.34, -19363.12, 0.00, 0.00, 0.00, 0.00, 0.00, 0.00, 0.000, 0.000, 0.000, 11:27:37.805, 1561476457805
79, -40275.09, -18281.09, 0.00, 0.00, 0.00, 0.00, 0.00, 0.00, 0.072, -0.044, 1.030, 11:27:37.805, 1561476457805
80, -40200.30, -18199.35, 0.00, 0.00, 0.00, 0.00, 0.00, 0.00, 0.000, 0.000, 0.000, 11:27:37.805, 1561476457805
81, -41291.18, -19255.87, 0.00, 0.00, 0.00, 0.00, 0.00, 0.00, 0.000, 0.000, 0.000, 11:27:37.805, 1561476457805
82, -41509.40, -19483.59, 0.00, 0.00, 0.00, 0.00, 0.00, 0.00, 0.000, 0.000, 0.000, 11:27:37.806, 1561476457806
83, -40447.49, -18453.80, 0.00, 0.00, 0.00, 0.00, 0.00, 0.00, 0.000, 0.000, 0.000, 11:27:37.806, 1561476457806
84, -40076.27, -18093.83, 0.00, 0.00, 0.00, 0.00, 0.00, 0.00, 0.000, 0.000, 0.000, 11:27:37.806, 1561476457806
85, -41084.94, -19071.22, 0.00, 0.00, 0.00, 0.00, 0.00, 0.00, 0.000, 0.000, 0.000, 11:27:37.806, 1561476457806
86, -41591.14, -19564.50, 0.00, 0.00, 0.00, 0.00, 0.00, 0.00, 0.000, 0.000, 0.000, 11:27:37.806, 1561476457806
87, -40649.26, -18648.98, 0.00, 0.00, 0.00, 0.00, 0.00, 0.00, 0.000, 0.000, 0.000, 11:27:37.806, 1561476457806
88, -40007.59, -18023.71, 0.00, 0.00, 0.00, 0.00, 0.00, 0.00, 0.000, 0.000, 0.000, 11:27:37.806, 1561476457806
89, -40861.89, -18853.27, 0.00, 0.00, 0.00, 0.00, 0.00, 0.00, 0.070, -0.044, 1.040, 11:27:37.806, 1561476457806
90, -41584.26, -19563.47, 0.00, 0.00, 0.00, 0.00, 0.00, 0.00, 0.000, 0.000, 0.000, 11:27:37.806, 1561476457806
91, -40795.22, -18798.96, 0.00, 0.00, 0.00, 0.00, 0.00, 0.00, 0.000, 0.000, 0.000, 11:27:37.806, 1561476457806
92, -39951.04, -17976.81, 0.00, 0.00, 0.00, 0.00, 0.00, 0.00, 0.000, 0.000, 0.000, 11:27:37.806, 1561476457806
93, -40648.95, -18648.24, 0.00, 0.00, 0.00, 0.00, 0.00, 0.00, 0.000, 0.000, 0.000, 11:27:37.806, 1561476457806
94, -41577.30, -19549.30, 0.00, 0.00, 0.00, 0.00, 0.00, 0.00, 0.000, 0.000, 0.000, 11:27:37.807, 1561476457807
95, -41019.72, -19013.06, 0.00, 0.00, 0.00, 0.00, 0.00, 0.00, 0.000, 0.000, 0.000, 11:27:37.807, 1561476457807
96, -40061.52, -18080.66, 0.00, 0.00, 0.00, 0.00, 0.00, 0.00, 0.000, 0.000, 0.000, 11:27:37.807, 1561476457807
97, -40575.03, -18573.09, 0.00, 0.00, 0.00, 0.00, 0.00, 0.00, 0.000, 0.000, 0.000, 11:27:37.807, 1561476457807
98, -41622.68, -19589.04, 0.00, 0.00, 0.00, 0.00, 0.00, 0.00, 0.000, 0.000, 0.000, 11:27:37.807, 1561476457807
99, -41262.57, -19243.87, 0.00, 0.00, 0.00, 0.00, 0.00, 0.00, 0.076, -0.038, 1.034, 11:27:37.807, 1561476457807
100, -40151.24, -18167.83, 0.00, 0.00, 0.00, 0.00, 0.00, 0.00, 0.000, 0.000, 0.000, 11:27:37.807, 1561476457807
101, -40336.74, -18340.95, 0.00, 0.00, 0.00, 0.00, 0.00, 0.00, 0.000, 0.000, 0.000, 11:27:37.807, 1561476457807
102, -41420.29, -19392.46, 0.00, 0.00, 0.00, 0.00, 0.00, 0.00, 0.000, 0.000, 0.000, 11:27:37.807, 1561476457807
103, -41345.72, -19328.92, 0.00, 0.00, 0.00, 0.00, 0.00, 0.00, 0.000, 0.000, 0.000, 11:27:37.807, 1561476457807
104, -40247.24, -18266.40, 0.00, 0.00, 0.00, 0.00, 0.00, 0.00, 0.000, 0.000, 0.000, 11:27:37.807, 1561476457807
105, -40173.86, -18188.55, 0.00, 0.00, 0.00, 0.00, 0.00, 0.00, 0.000, 0.000, 0.000, 11:27:37.807, 1561476457807
106, -41267.09, -19243.02, 0.00, 0.00, 0.00, 0.00, 0.00, 0.00, 0.000, 0.000, 0.000, 11:27:37.807, 1561476457807
107, -41501.46, -19477.71, 0.00, 0.00, 0.00, 0.00, 0.00, 0.00, 0.000, 0.000, 0.000, 11:27:37.807, 1561476457807
108, -40463.79, -18474.61, 0.00, 0.00, 0.00, 0.00, 0.00, 0.00, 0.000, 0.000, 0.000, 11:27:37.808, 1561476457808
109, -40092.55, -18108.38, 0.00, 0.00, 0.00, 0.00, 0.00, 0.00, 0.000, 0.000, 0.000, 11:27:37.808, 1561476457808
110, -41094.15, -19077.46, 0.00, 0.00, 0.00, 0.00, 0.00, 0.00, 0.074, -0.038, 1.026, 11:27:37.808, 1561476457808
111, -41602.45, -19584.53, 0.00, 0.00, 0.00, 0.00, 0.00, 0.00, 0.000, 0.000, 0.000, 11:27:37.808, 1561476457808
112, -40639.47, -18654.27, 0.00, 0.00, 0.00, 0.00, 0.00, 0.00, 0.000, 0.000, 0.000, 11:27:37.808, 1561476457808
113, -40004.75, -18028.36, 0.00, 0.00, 0.00, 0.00, 0.00, 0.00, 0.000, 0.000, 0.000, 11:27:37.808, 1561476457808
114, -40889.03, -18875.82, 0.00, 0.00, 0.00, 0.00, 0.00, 0.00, 0.000, 0.000, 0.000, 11:27:37.808, 1561476457808
115, -41628.34, -19596.11, 0.00, 0.00, 0.00, 0.00, 0.00, 0.00, 0.000, 0.000, 0.000, 11:27:37.808, 1561476457808
116, -40842.71, -18829.47, 0.00, 0.00, 0.00, 0.00, 0.00, 0.00, 0.000, 0.000, 0.000, 11:27:37.808, 1561476457808
117, -40004.95, -18020.06, 0.00, 0.00, 0.00, 0.00, 0.00, 0.00, 0.000, 0.000, 0.000, 11:27:37.808, 1561476457808
118, -40704.92, -18699.94, 0.00, 0.00, 0.00, 0.00, 0.00, 0.00, 0.000, 0.000, 0.000, 11:27:37.808, 1561476457808
119, -41627.60, -19595.93, 0.00, 0.00, 0.00, 0.00, 0.00, 0.00, 0.000, 0.000, 0.000, 11:27:37.808, 1561476457808
120, -41035.84, -19025.36, 0.00, 0.00, 0.00, 0.00, 0.00, 0.00, 0.068, -0.040, 1.028, 11:27:37.808, 1561476457808
121, -40028.91, -18046.28, 0.00, 0.00, 0.00, 0.00, 0.00, 0.00, 0.000, 0.000, 0.000, 11:27:38.274, 1561476458274
122, -40488.17, -18487.51, 0.00, 0.00, 0.00, 0.00, 0.00, 0.00, 0.000, 0.000, 0.000, 11:27:38.274, 1561476458274
123, -41541.70, -19508.91, 0.00, 0.00, 0.00, 0.00, 0.00, 0.00, 0.000, 0.000, 0.000, 11:27:38.274, 1561476458274
124, -41218.54, -19200.08, 0.00, 0.00, 0.00, 0.00, 0.00, 0.00, 0.000, 0.000, 0.000, 11:27:38.274, 1561476458274
125, -40114.34, -18129.37, 0.00, 0.00, 0.00, 0.00, 0.00, 0.00, 0.000, 0.000, 0.000, 11:27:38.274, 1561476458274
126, -40286.29, -18289.67, 0.00, 0.00, 0.00, 0.00, 0.00, 0.00, 0.000, 0.000, 0.000, 11:27:38.275, 1561476458275
127, -41381.06, -19354.08, 0.00, 0.00, 0.00, 0.00, 0.00, 0.00, 0.000, 0.000, 0.000, 11:27:38.275, 1561476458275
128, -41357.66, -19338.04, 0.00, 0.00, 0.00, 0.00, 0.00, 0.00, 0.000, 0.000, 0.000, 11:27:38.275, 1561476458275
129, -40291.41, -18305.86, 0.00, 0.00, 0.00, 0.00, 0.00, 0.00, 0.000, 0.000, 0.000, 11:27:38.275, 1561476458275
130, -40175.94, -18194.63, 0.00, 0.00, 0.00, 0.00, 0.00, 0.00, 0.070, -0.044, 1.034, 11:27:38.275, 1561476458275
131, -41253.47, -19237.25, 0.00, 0.00, 0.00, 0.00, 0.00, 0.00, 0.000, 0.000, 0.000, 11:27:38.275, 1561476458275
132, -41515.37, -19492.20, 0.00, 0.00, 0.00, 0.00, 0.00, 0.00, 0.000, 0.000, 0.000, 11:27:38.275, 1561476458275
133, -40471.05, -18479.13, 0.00, 0.00, 0.00, 0.00, 0.00, 0.00, 0.000, 0.000, 0.000, 11:27:38.275, 1561476458275
134, -40088.97, -18102.90, 0.00, 0.00, 0.00, 0.00, 0.00, 0.00, 0.000, 0.000, 0.000, 11:27:38.275, 1561476458275
135, -41075.98, -19058.26, 0.00, 0.00, 0.00, 0.00, 0.00, 0.00, 0.000, 0.000, 0.000, 11:27:38.275, 1561476458275
136, -41580.50, -19553.02, 0.00, 0.00, 0.00, 0.00, 0.00, 0.00, 0.000, 0.000, 0.000, 11:27:38.276, 1561476458276
137, -40624.36, -18625.02, 0.00, 0.00, 0.00, 0.00, 0.00, 0.00, 0.000, 0.000, 0.000, 11:27:38.276, 1561476458276
138, -40003.00, -18016.76, 0.00, 0.00, 0.00, 0.00, 0.00, 0.00, 0.000, 0.000, 0.000, 11:27:38.276, 1561476458276
139, -40901.66, -18888.30, 0.00, 0.00, 0.00, 0.00, 0.00, 0.00, 0.000, 0.000, 0.000, 11:27:38.276, 1561476458276
140, -41670.09, -19641.66, 0.00, 0.00, 0.00, 0.00, 0.00, 0.00, 0.074, -0.044, 1.034, 11:27:38.276, 1561476458276
141, -40882.19, -18885.79, 0.00, 0.00, 0.00, 0.00, 0.00, 0.00, 0.000, 0.000, 0.000, 11:27:38.276, 1561476458276
142, -40014.34, -18039.89, 0.00, 0.00, 0.00, 0.00, 0.00, 0.00, 0.000, 0.000, 0.000, 11:27:38.276, 1561476458276
143, -40694.79, -18693.93, 0.00, 0.00, 0.00, 0.00, 0.00, 0.00, 0.000, 0.000, 0.000, 11:27:38.276, 1561476458276
144, -41634.93, -19602.93, 0.00, 0.00, 0.00, 0.00, 0.00, 0.00, 0.000, 0.000, 0.000, 11:27:38.276, 1561476458276
145, -41058.34, -19045.27, 0.00, 0.00, 0.00, 0.00, 0.00, 0.00, 0.000, 0.000, 0.000, 11:27:38.276, 1561476458276
146, -40054.14, -18076.84, 0.00, 0.00, 0.00, 0.00, 0.00, 0.00, 0.000, 0.000, 0.000, 11:27:38.276, 1561476458276
147, -40506.14, -18510.42, 0.00, 0.00, 0.00, 0.00, 0.00, 0.00, 0.000, 0.000, 0.000, 11:27:38.276, 1561476458276
148, -41577.95, -19551.92, 0.00, 0.00, 0.00, 0.00, 0.00, 0.00, 0.000, 0.000, 0.000, 11:27:38.277, 1561476458277
149, -41267.89, -19247.29, 0.00, 0.00, 0.00, 0.00, 0.00, 0.00, 0.000, 0.000, 0.000, 11:27:38.277, 1561476458277
150, -40170.24, -18182.96, 0.00, 0.00, 0.00, 0.00, 0.00, 0.00, 0.076, -0.046, 1.030, 11:27:38.277, 1561476458277
151, -40336.49, -18343.00, 0.00, 0.00, 0.00, 0.00, 0.00, 0.00, 0.000, 0.000, 0.000, 11:27:38.277, 1561476458277
152, -41447.66, -19416.96, 0.00, 0.00, 0.00, 0.00, 0.00, 0.00, 0.000, 0.000, 0.000, 11:27:38.277, 1561476458277
153, -41432.58, -19401.40, 0.00, 0.00, 0.00, 0.00, 0.00, 0.00, 0.000, 0.000, 0.000, 11:27:38.277, 1561476458277
154, -40328.40, -18334.17, 0.00, 0.00, 0.00, 0.00, 0.00, 0.00, 0.000, 0.000, 0.000, 11:27:38.277, 1561476458277
155, -40203.46, -18217.21, 0.00, 0.00, 0.00, 0.00, 0.00, 0.00, 0.000, 0.000, 0.000, 11:27:38.277, 1561476458277
156, -41294.31, -19269.57, 0.00, 0.00, 0.00, 0.00, 0.00, 0.00, 0.000, 0.000, 0.000, 11:27:38.277, 1561476458277
157, -41567.61, -19534.73, 0.00, 0.00, 0.00, 0.00, 0.00, 0.00, 0.000, 0.000, 0.000, 11:27:38.277, 1561476458277
158, -40524.09, -18525.95, 0.00, 0.00, 0.00, 0.00, 0.00, 0.00, 0.000, 0.000, 0.000, 11:27:38.278, 1561476458278
159, -40113.16, -18123.17, 0.00, 0.00, 0.00, 0.00, 0.00, 0.00, 0.000, 0.000, 0.000, 11:27:38.279, 1561476458279
160, -41095.51, -19075.87, 0.00, 0.00, 0.00, 0.00, 0.00, 0.00, 0.000, 0.000, 0.000, 11:27:38.279, 1561476458279
161, -41631.93, -19596.47, 0.00, 0.00, 0.00, 0.00, 0.00, 0.00, 0.072, -0.046, 1.026, 11:27:38.279, 1561476458279
162, -40711.71, -18708.61, 0.00, 0.00, 0.00, 0.00, 0.00, 0.00, 0.000, 0.000, 0.000, 11:27:38.279, 1561476458279
163, -40066.39, -18083.16, 0.00, 0.00, 0.00, 0.00, 0.00, 0.00, 0.000, 0.000, 0.000, 11:27:38.279, 1561476458279
164, -40926.13, -18912.50, 0.00, 0.00, 0.00, 0.00, 0.00, 0.00, 0.000, 0.000, 0.000, 11:27:38.279, 1561476458279
165, -41677.62, -19641.88, 0.00, 0.00, 0.00, 0.00, 0.00, 0.00, 0.000, 0.000, 0.000, 11:27:38.279, 1561476458279
166, -40899.51, -18887.71, 0.00, 0.00, 0.00, 0.00, 0.00, 0.00, 0.000, 0.000, 0.000, 11:27:38.279, 1561476458279
167, -40023.08, -18028.22, 0.00, 0.00, 0.00, 0.00, 0.00, 0.00, 0.000, 0.000, 0.000, 11:27:38.279, 1561476458279
168, -40694.93, -18679.84, 0.00, 0.00, 0.00, 0.00, 0.00, 0.00, 0.000, 0.000, 0.000, 11:27:38.279, 1561476458279
169, -41660.32, -19615.44, 0.00, 0.00, 0.00, 0.00, 0.00, 0.00, 0.000, 0.000, 0.000, 11:27:38.279, 1561476458279
170, -41112.70, -19098.71, 0.00, 0.00, 0.00, 0.00, 0.00, 0.00, 0.000, 0.000, 0.000, 11:27:38.280, 1561476458280
171, -40080.75, -18097.42, 0.00, 0.00, 0.00, 0.00, 0.00, 0.00, 0.072, -0.040, 1.022, 11:27:38.280, 1561476458280
172, -40528.27, -18525.17, 0.00, 0.00, 0.00, 0.00, 0.00, 0.00, 0.000, 0.000, 0.000, 11:27:38.280, 1561476458280
173, -41592.50, -19557.62, 0.00, 0.00, 0.00, 0.00, 0.00, 0.00, 0.000, 0.000, 0.000, 11:27:38.280, 1561476458280
174, -41284.25, -19254.82, 0.00, 0.00, 0.00, 0.00, 0.00, 0.00, 0.000, 0.000, 0.000, 11:27:38.280, 1561476458280
175, -40196.10, -18194.30, 0.00, 0.00, 0.00, 0.00, 0.00, 0.00, 0.000, 0.000, 0.000, 11:27:38.280, 1561476458280
176, -40363.88, -18359.16, 0.00, 0.00, 0.00, 0.00, 0.00, 0.00, 0.000, 0.000, 0.000, 11:27:38.280, 1561476458280
177, -41455.36, -19423.08, 0.00, 0.00, 0.00, 0.00, 0.00, 0.00, 0.000, 0.000, 0.000, 11:27:38.280, 1561476458280
178, -41430.12, -19405.40, 0.00, 0.00, 0.00, 0.00, 0.00, 0.00, 0.000, 0.000, 0.000, 11:27:38.280, 1561476458280
179, -40336.79, -18346.18, 0.00, 0.00, 0.00, 0.00, 0.00, 0.00, 0.000, 0.000, 0.000, 11:27:38.280, 1561476458280
180, -40202.18, -18208.29, 0.00, 0.00, 0.00, 0.00, 0.00, 0.00, 0.000, 0.000, 0.000, 11:27:38.280, 1561476458280
181, -41282.87, -19253.95, 0.00, 0.00, 0.00, 0.00, 0.00, 0.00, 0.070, -0.040, 1.026, 11:27:38.280, 1561476458280
182, -41573.50, -19538.53, 0.00, 0.00, 0.00, 0.00, 0.00, 0.00, 0.000, 0.000, 0.000, 11:27:38.280, 1561476458280
183, -40527.22, -18524.92, 0.00, 0.00, 0.00, 0.00, 0.00, 0.00, 0.000, 0.000, 0.000, 11:27:38.281, 1561476458281
184, -40112.33, -18118.70, 0.00, 0.00, 0.00, 0.00, 0.00, 0.00, 0.000, 0.000, 0.000, 11:27:38.281, 1561476458281
185, -41114.76, -19094.85, 0.00, 0.00, 0.00, 0.00, 0.00, 0.00, 0.000, 0.000, 0.000, 11:27:38.281, 1561476458281
186, -41650.60, -19615.76, 0.00, 0.00, 0.00, 0.00, 0.00, 0.00, 0.000, 0.000, 0.000, 11:27:38.281, 1561476458281
187, -40712.74, -18697.75, 0.00, 0.00, 0.00, 0.00, 0.00, 0.00, 0.000, 0.000, 0.000, 11:27:38.281, 1561476458281
188, -40023.55, -18030.57, 0.00, 0.00, 0.00, 0.00, 0.00, 0.00, 0.000, 0.000, 0.000, 11:27:38.281, 1561476458281
189, -40873.72, -18863.29, 0.00, 0.00, 0.00, 0.00, 0.00, 0.00, 0.000, 0.000, 0.000, 11:27:38.281, 1561476458281
190, -41655.04, -19620.05, 0.00, 0.00, 0.00, 0.00, 0.00, 0.00, 0.000, 0.000, 0.000, 11:27:38.281, 1561476458281
191, -40898.35, -18880.09, 0.00, 0.00, 0.00, 0.00, 0.00, 0.00, 0.078, -0.044, 1.022, 11:27:38.281, 1561476458281
192, -40038.34, -18044.03, 0.00, 0.00, 0.00, 0.00, 0.00, 0.00, 0.000, 0.000, 0.000, 11:27:38.281, 1561476458281
193, -40701.34, -18693.30, 0.00, 0.00, 0.00, 0.00, 0.00, 0.00, 0.000, 0.000, 0.000, 11:27:38.282, 1561476458282
194, -41666.67, -19633.55, 0.00, 0.00, 0.00, 0.00, 0.00, 0.00, 0.000, 0.000, 0.000, 11:27:38.282, 1561476458282
195, -41128.06, -19109.27, 0.00, 0.00, 0.00, 0.00, 0.00, 0.00, 0.000, 0.000, 0.000, 11:27:38.282, 1561476458282
196, -40089.73, -18103.30, 0.00, 0.00, 0.00, 0.00, 0.00, 0.00, 0.000, 0.000, 0.000, 11:27:38.282, 1561476458282
197, -40505.56, -18503.22, 0.00, 0.00, 0.00, 0.00, 0.00, 0.00, 0.000, 0.000, 0.000, 11:27:38.282, 1561476458282
198, -41590.25, -19555.83, 0.00, 0.00, 0.00, 0.00, 0.00, 0.00, 0.000, 0.000, 0.000, 11:27:38.282, 1561476458282
199, -41299.74, -19277.91, 0.00, 0.00, 0.00, 0.00, 0.00, 0.00, 0.000, 0.000, 0.000, 11:27:38.282, 1561476458282
200, -40194.20, -18203.53, 0.00, 0.00, 0.00, 0.00, 0.00, 0.00, 0.000, 0.000, 0.000, 11:27:38.282, 1561476458282
201, -40334.04, -18338.26, 0.00, 0.00, 0.00, 0.00, 0.00, 0.00, 0.076, -0.042, 1.028, 11:27:38.283, 1561476458283
202, -41430.92, -19399.21, 0.00, 0.00, 0.00, 0.00, 0.00, 0.00, 0.000, 0.000, 0.000, 11:27:38.283, 1561476458283
203, -41441.45, -19411.30, 0.00, 0.00, 0.00, 0.00, 0.00, 0.00, 0.000, 0.000, 0.000, 11:27:38.283, 1561476458283
204, -40354.84, -18360.26, 0.00, 0.00, 0.00, 0.00, 0.00, 0.00, 0.000, 0.000, 0.000, 11:27:38.283, 1561476458283
205, -40206.90, -18212.74, 0.00, 0.00, 0.00, 0.00, 0.00, 0.00, 0.000, 0.000, 0.000, 11:27:38.283, 1561476458283
206, -41277.90, -19254.93, 0.00, 0.00, 0.00, 0.00, 0.00, 0.00, 0.000, 0.000, 0.000, 11:27:38.283, 1561476458283
207, -41587.01, -19549.71, 0.00, 0.00, 0.00, 0.00, 0.00, 0.00, 0.000, 0.000, 0.000, 11:27:38.283, 1561476458283
208, -40544.83, -18535.72, 0.00, 0.00, 0.00, 0.00, 0.00, 0.00, 0.000, 0.000, 0.000, 11:27:38.284, 1561476458284
209, -40095.41, -18105.14, 0.00, 0.00, 0.00, 0.00, 0.00, 0.00, 0.000, 0.000, 0.000, 11:27:38.284, 1561476458284
210, -41084.94, -19063.29, 0.00, 0.00, 0.00, 0.00, 0.00, 0.00, 0.000, 0.000, 0.000, 11:27:38.284, 1561476458284
211, -41650.80, -19616.31, 0.00, 0.00, 0.00, 0.00, 0.00, 0.00, 0.078, -0.038, 1.034, 11:27:38.284, 1561476458284
212, -40725.37, -18716.59, 0.00, 0.00, 0.00, 0.00, 0.00, 0.00, 0.000, 0.000, 0.000, 11:27:38.284, 1561476458284
213, -40039.35, -18046.11, 0.00, 0.00, 0.00, 0.00, 0.00, 0.00, 0.000, 0.000, 0.000, 11:27:38.284, 1561476458284
214, -40885.34, -18867.42, 0.00, 0.00, 0.00, 0.00, 0.00, 0.00, 0.000, 0.000, 0.000, 11:27:38.285, 1561476458285
215, -41677.06, -19637.93, 0.00, 0.00, 0.00, 0.00, 0.00, 0.00, 0.000, 0.000, 0.000, 11:27:38.285, 1561476458285
216, -40918.89, -18901.42, 0.00, 0.00, 0.00, 0.00, 0.00, 0.00, 0.000, 0.000, 0.000, 11:27:38.285, 1561476458285
217, -40028.66, -18032.16, 0.00, 0.00, 0.00, 0.00, 0.00, 0.00, 0.000, 0.000, 0.000, 11:27:38.285, 1561476458285
218, -40686.66, -18675.02, 0.00, 0.00, 0.00, 0.00, 0.00, 0.00, 0.000, 0.000, 0.000, 11:27:38.286, 1561476458286
219, -41640.23, -19609.65, 0.00, 0.00, 0.00, 0.00, 0.00, 0.00, 0.000, 0.000, 0.000, 11:27:38.286, 1561476458286
220, -41125.69, -19108.19, 0.00, 0.00, 0.00, 0.00, 0.00, 0.00, 0.000, 0.000, 0.000, 11:27:38.286, 1561476458286
221, -40109.31, -18118.08, 0.00, 0.00, 0.00, 0.00, 0.00, 0.00, 0.000, 0.000, 0.000, 11:27:38.286, 1561476458286
222, -40495.50, -18496.58, 0.00, 0.00, 0.00, 0.00, 0.00, 0.00, 0.082, -0.044, 1.032, 11:27:38.286, 1561476458286
223, -41563.02, -19533.21, 0.00, 0.00, 0.00, 0.00, 0.00, 0.00, 0.000, 0.000, 0.000, 11:27:38.286, 1561476458286
224, -41288.90, -19261.59, 0.00, 0.00, 0.00, 0.00, 0.00, 0.00, 0.000, 0.000, 0.000, 11:27:38.286, 1561476458286
225, -40186.36, -18190.72, 0.00, 0.00, 0.00, 0.00, 0.00, 0.00, 0.000, 0.000, 0.000, 11:27:38.286, 1561476458286
226, -40306.41, -18313.90, 0.00, 0.00, 0.00, 0.00, 0.00, 0.00, 0.000, 0.000, 0.000, 11:27:38.287, 1561476458287
227, -41418.05, -19388.93, 0.00, 0.00, 0.00, 0.00, 0.00, 0.00, 0.000, 0.000, 0.000, 11:27:38.287, 1561476458287
228, -41441.52, -19411.71, 0.00, 0.00, 0.00, 0.00, 0.00, 0.00, 0.000, 0.000, 0.000, 11:27:38.287, 1561476458287
229, -40340.92, -18344.93, 0.00, 0.00, 0.00, 0.00, 0.00, 0.00, 0.000, 0.000, 0.000, 11:27:38.287, 1561476458287
230, -40169.53, -18176.51, 0.00, 0.00, 0.00, 0.00, 0.00, 0.00, 0.000, 0.000, 0.000, 11:27:38.287, 1561476458287
231, -41246.37, -19224.11, 0.00, 0.00, 0.00, 0.00, 0.00, 0.00, 0.000, 0.000, 0.000, 11:27:38.287, 1561476458287
232, -41558.60, -19536.29, 0.00, 0.00, 0.00, 0.00, 0.00, 0.00, 0.078, -0.038, 1.030, 11:27:38.287, 1561476458287
233, -40556.43, -18559.86, 0.00, 0.00, 0.00, 0.00, 0.00, 0.00, 0.000, 0.000, 0.000, 11:27:38.288, 1561476458288
234, -40097.60, -18108.80, 0.00, 0.00, 0.00, 0.00, 0.00, 0.00, 0.000, 0.000, 0.000, 11:27:38.288, 1561476458288
235, -41073.63, -19053.77, 0.00, 0.00, 0.00, 0.00, 0.00, 0.00, 0.000, 0.000, 0.000, 11:27:38.288, 1561476458288
236, -41656.14, -19614.66, 0.00, 0.00, 0.00, 0.00, 0.00, 0.00, 0.000, 0.000, 0.000, 11:27:38.288, 1561476458288
237, -40733.28, -18724.26, 0.00, 0.00, 0.00, 0.00, 0.00, 0.00, 0.000, 0.000, 0.000, 11:27:38.288, 1561476458288
238, -40022.85, -18030.23, 0.00, 0.00, 0.00, 0.00, 0.00, 0.00, 0.000, 0.000, 0.000, 11:27:38.288, 1561476458288
239, -40848.95, -18826.92, 0.00, 0.00, 0.00, 0.00, 0.00, 0.00, 0.000, 0.000, 0.000, 11:27:38.288, 1561476458288
240, -41681.84, -19639.29, 0.00, 0.00, 0.00, 0.00, 0.00, 0.00, 0.000, 0.000, 0.000, 11:27:38.288, 1561476458288
241, -40947.59, -18931.48, 0.00, 0.00, 0.00, 0.00, 0.00, 0.00, 0.000, 0.000, 0.000, 11:27:38.755, 1561476458755
242, -40051.13, -18056.01, 0.00, 0.00, 0.00, 0.00, 0.00, 0.00, 0.070, -0.036, 1.030, 11:27:38.756, 1561476458756
243, -40692.78, -18677.18, 0.00, 0.00, 0.00, 0.00, 0.00, 0.00, 0.000, 0.000, 0.000, 11:27:38.756, 1561476458756
244, -41663.07, -19625.46, 0.00, 0.00, 0.00, 0.00, 0.00, 0.00, 0.000, 0.000, 0.000, 11:27:38.756, 1561476458756
245, -41141.74, -19120.04, 0.00, 0.00, 0.00, 0.00, 0.00, 0.00, 0.000, 0.000, 0.000, 11:27:38.756, 1561476458756
246, -40105.31, -18103.44, 0.00, 0.00, 0.00, 0.00, 0.00, 0.00, 0.000, 0.000, 0.000, 11:27:38.756, 1561476458756
247, -40473.78, -18466.38, 0.00, 0.00, 0.00, 0.00, 0.00, 0.00, 0.000, 0.000, 0.000, 11:27:38.756, 1561476458756
248, -41547.58, -19518.44, 0.00, 0.00, 0.00, 0.00, 0.00, 0.00, 0.000, 0.000, 0.000, 11:27:38.756, 1561476458756
249, -41301.93, -19282.27, 0.00, 0.00, 0.00, 0.00, 0.00, 0.00, 0.000, 0.000, 0.000, 11:27:38.757, 1561476458757
250, -40226.90, -18231.96, 0.00, 0.00, 0.00, 0.00, 0.00, 0.00, 0.000, 0.000, 0.000, 11:27:38.757, 1561476458757
251, -40338.01, -18339.94, 0.00, 0.00, 0.00, 0.00, 0.00, 0.00, 0.000, 0.000, 0.000, 11:27:38.757, 1561476458757
252, -41438.72, -19406.50, 0.00, 0.00, 0.00, 0.00, 0.00, 0.00, 0.076, -0.046, 1.030, 11:27:38.757, 1561476458757
253, -41458.73, -19422.59, 0.00, 0.00, 0.00, 0.00, 0.00, 0.00, 0.000, 0.000, 0.000, 11:27:38.757, 1561476458757
254, -40365.89, -18358.40, 0.00, 0.00, 0.00, 0.00, 0.00, 0.00, 0.000, 0.000, 0.000, 11:27:38.757, 1561476458757
255, -40206.96, -18199.37, 0.00, 0.00, 0.00, 0.00, 0.00, 0.00, 0.000, 0.000, 0.000, 11:27:38.757, 1561476458757
0, -41255.46, -19219.88, 0.00, 0.00, 0.00, 0.00, 0.00, 0.00, 0.000, 0.000, 0.000, 11:27:38.757, 1561476458757
1, -41570.67, -19529.93, 0.00, 0.00, 0.00, 0.00, 0.00, 0.00, 0.000, 0.000, 0.000, 11:27:38.757, 1561476458757
2, -40580.24, -18570.72, 0.00, 0.00, 0.00, 0.00, 0.00, 0.00, 0.000, 0.000, 0.000, 11:27:38.757, 1561476458757
3, -40121.13, -18122.03, 0.00, 0.00, 0.00, 0.00, 0.00, 0.00, 0.000, 0.000, 0.000, 11:27:38.757, 1561476458757
4, -41083.71, -19053.23, 0.00, 0.00, 0.00, 0.00, 0.00, 0.00, 0.000, 0.000, 0.000, 11:27:38.757, 1561476458757
5, -41659.67, -19615.02, 0.00, 0.00, 0.00, 0.00, 0.00, 0.00, 0.000, 0.000, 0.000, 11:27:38.757, 1561476458757
6, -40745.75, -18731.54, 0.00, 0.00, 0.00, 0.00, 0.00, 0.00, 0.074, -0.040, 1.028, 11:27:38.757, 1561476458757
7, -40016.50, -18023.62, 0.00, 0.00, 0.00, 0.00, 0.00, 0.00, 0.000, 0.000, 0.000, 11:27:38.757, 1561476458757
8, -40823.54, -18811.83, 0.00, 0.00, 0.00, 0.00, 0.00, 0.00, 0.000, 0.000, 0.000, 11:27:38.757, 1561476458757
9, -41628.34, -19596.60, 0.00, 0.00, 0.00, 0.00, 0.00, 0.00, 0.000, 0.000, 0.000, 11:27:38.757, 1561476458757
10, -40883.26, -18871.40, 0.00, 0.00, 0.00, 0.00, 0.00, 0.00, 0.000, 0.000, 0.000, 11:27:38.757, 1561476458757
11, -40007.48, -18015.37, 0.00, 0.00, 0.00, 0.00, 0.00, 0.00, 0.000, 0.000, 0.000, 11:27:38.757, 1561476458757
12, -40673.22, -18657.71, 0.00, 0.00, 0.00, 0.00, 0.00, 0.00, 0.000, 0.000, 0.000, 11:27:38.758, 1561476458758
13, -41692.21, -19646.15, 0.00, 0.00, 0.00, 0.00, 0.00, 0.00, 0.000, 0.000, 0.000, 11:27:38.758, 1561476458758
14, -41207.83, -19175.25, 0.00, 0.00, 0.00, 0.00, 0.00, 0.00, 0.000, 0.000, 0.000, 11:27:38.758, 1561476458758
15, -40171.05, -18170.83, 0.00, 0.00, 0.00, 0.00, 0.00, 0.00, 0.000, 0.000, 0.000, 11:27:38.758, 1561476458758
16, -40518.64, -18508.85, 0.00, 0.00, 0.00, 0.00, 0.00, 0.00, 0.000, 0.000, 0.000, 11:27:38.758, 1561476458758
17, -41600.15, -19559.70, 0.00, 0.00, 0.00, 0.00, 0.00, 0.00, 0.072, -0.036, 1.030, 11:27:38.758, 1561476458758
18, -41349.54, -19323.19, 0.00, 0.00, 0.00, 0.00, 0.00, 0.00, 0.000, 0.000, 0.000, 11:27:38.758, 1561476458758
19, -40242.97, -18244.99, 0.00, 0.00, 0.00, 0.00, 0.00, 0.00, 0.000, 0.000, 0.000, 11:27:38.758, 1561476458758
20, -40325.63, -18320.74, 0.00, 0.00, 0.00, 0.00, 0.00, 0.00, 0.000, 0.000, 0.000, 11:27:38.758, 1561476458758
21, -41422.72, -19388.37, 0.00, 0.00, 0.00, 0.00, 0.00, 0.00, 0.000, 0.000, 0.000, 11:27:38.758, 1561476458758
22, -41492.12, -19458.06, 0.00, 0.00, 0.00, 0.00, 0.00, 0.00, 0.000, 0.000, 0.000, 11:27:38.758, 1561476458758
23, -40395.77, -18394.05, 0.00, 0.00, 0.00, 0.00, 0.00, 0.00, 0.000, 0.000, 0.000, 11:27:38.758, 1561476458758
24, -40192.84, -18192.26, 0.00, 0.00, 0.00, 0.00, 0.00, 0.00, 0.000, 0.000, 0.000, 11:27:38.759, 1561476458759
25, -41260.25, -19222.75, 0.00, 0.00, 0.00, 0.00, 0.00, 0.00, 0.000, 0.000, 0.000, 11:27:38.759, 1561476458759
26, -41593.18, -19548.43, 0.00, 0.00, 0.00, 0.00, 0.00, 0.00, 0.000, 0.000, 0.000, 11:27:38.759, 1561476458759
27, -40576.19, -18563.93, 0.00, 0.00, 0.00, 0.00, 0.00, 0.00, 0.076, -0.042, 1.032, 11:27:38.759, 1561476458759
28, -40098.09, -18103.41, 0.00, 0.00, 0.00, 0.00, 0.00, 0.00, 0.000, 0.000, 0.000, 11:27:38.759, 1561476458759
29, -41051.66, -19033.16, 0.00, 0.00, 0.00, 0.00, 0.00, 0.00, 0.000, 0.000, 0.000, 11:27:38.760, 1561476458760
30, -41659.63, -19621.90, 0.00, 0.00, 0.00, 0.00, 0.00, 0.00, 0.000, 0.000, 0.000, 11:27:38.760, 1561476458760
31, -40760.64, -18745.31, 0.00, 0.00, 0.00, 0.00, 0.00, 0.00, 0.000, 0.000, 0.000, 11:27:38.760, 1561476458760
32, -40048.36, -18049.79, 0.00, 0.00, 0.00, 0.00, 0.00, 0.00, 0.000, 0.000, 0.000, 11:27:38.760, 1561476458760
33, -40866.05, -18844.20, 0.00, 0.00, 0.00, 0.00, 0.00, 0.00, 0.000, 0.000, 0.000, 11:27:38.760, 1561476458760
34, -41689.27, -19643.29, 0.00, 0.00, 0.00, 0.00, 0.00, 0.00, 0.000, 0.000, 0.000, 11:27:38.760, 1561476458760
35, -40977.59, -18950.34, 0.00, 0.00, 0.00, 0.00, 0.00, 0.00, 0.000, 0.000, 0.000, 11:27:38.760, 1561476458760
36, -40066.04, -18065.80, 0.00, 0.00, 0.00, 0.00, 0.00, 0.00, 0.000, 0.000, 0.000, 11:27:38.760, 1561476458760
37, -40686.57, -18666.41, 0.00, 0.00, 0.00, 0.00, 0.00, 0.00, 0.078, -0.038, 1.032, 11:27:38.760, 1561476458760
38, -41685.31, -19636.97, 0.00, 0.00, 0.00, 0.00, 0.00, 0.00, 0.000, 0.000, 0.000, 11:27:38.760, 1561476458760
39, -41199.65, -19167.09, 0.00, 0.00, 0.00, 0.00, 0.00, 0.00, 0.000, 0.000, 0.000, 11:27:38.760, 1561476458760
40, -40158.24, -18160.21, 0.00, 0.00, 0.00, 0.00, 0.00, 0.00, 0.000, 0.000, 0.000, 11:27:38.760, 1561476458760
41, -40499.21, -18489.41, 0.00, 0.00, 0.00, 0.00, 0.00, 0.00, 0.000, 0.000, 0.000, 11:27:38.760, 1561476458760
42, -41555.47, -19514.39, 0.00, 0.00, 0.00, 0.00, 0.00, 0.00, 0.000, 0.000, 0.000, 11:27:38.760, 1561476458760
43, -41320.68, -19287.61, 0.00, 0.00, 0.00, 0.00, 0.00, 0.00, 0.000, 0.000, 0.000, 11:27:38.760, 1561476458760
44, -40252.54, -18250.22, 0.00, 0.00, 0.00, 0.00, 0.00, 0.00, 0.000, 0.000, 0.000, 11:27:38.760, 1561476458760
45, -40326.26, -18322.78, 0.00, 0.00, 0.00, 0.00, 0.00, 0.00, 0.000, 0.000, 0.000, 11:27:38.760, 1561476458760
46, -41406.18, -19372.53, 0.00, 0.00, 0.00, 0.00, 0.00, 0.00, 0.000, 0.000, 0.000, 11:27:38.761, 1561476458761
47, -41497.04, -19461.71, 0.00, 0.00, 0.00, 0.00, 0.00, 0.00, 0.074, -0.038, 1.032, 11:27:38.761, 1561476458761
48, -40420.02, -18413.43, 0.00, 0.00, 0.00, 0.00, 0.00, 0.00, 0.000, 0.000, 0.000, 11:27:38.761, 1561476458761
49, -40202.23, -18203.39, 0.00, 0.00, 0.00, 0.00, 0.00, 0.00, 0.000, 0.000, 0.000, 11:27:38.761, 1561476458761
50, -41253.36, -19226.66, 0.00, 0.00, 0.00, 0.00, 0.00, 0.00, 0.000, 0.000, 0.000, 11:27:38.761, 1561476458761
51, -41592.88, -19558.98, 0.00, 0.00, 0.00, 0.00, 0.00, 0.00, 0.000, 0.000, 0.000, 11:27:38.761, 1561476458761
52, -40571.45, -18563.14, 0.00, 0.00, 0.00, 0.00, 0.00, 0.00, 0.000, 0.000, 0.000, 11:27:38.761, 1561476458761
53, -40067.36, -18073.60, 0.00, 0.00, 0.00, 0.00, 0.00, 0.00, 0.000, 0.000, 0.000, 11:27:38.761, 1561476458761
54, -41037.20, -19013.91, 0.00, 0.00, 0.00, 0.00, 0.00, 0.00, 0.000, 0.000, 0.000, 11:27:38.761, 1561476458761
55, -41655.31, -19613.86, 0.00, 0.00, 0.00, 0.00, 0.00, 0.00, 0.000, 0.000, 0.000, 11:27:38.761, 1561476458761
56, -40780.46, -18765.43, 0.00, 0.00, 0.00, 0.00, 0.00, 0.00, 0.000, 0.000, 0.000, 11:27:38.761, 1561476458761
57, -40059.18, -18059.96, 0.00, 0.00, 0.00, 0.00, 0.00, 0.00, 0.072, -0.036, 1.036, 11:27:38.762, 1561476458762
58, -40854.79, -18834.79, 0.00, 0.00, 0.00, 0.00, 0.00, 0.00, 0.000, 0.000, 0.000, 11:27:38.762, 1561476458762
59, -41688.93, -19642.44, 0.00, 0.00, 0.00, 0.00, 0.00, 0.00, 0.000, 0.000, 0.000, 11:27:38.762, 1561476458762
60, -40973.99, -18946.95, 0.00, 0.00, 0.00, 0.00, 0.00, 0.00, 0.000, 0.000, 0.000, 11:27:38.762, 1561476458762
61, -40051.22, -18056.68, 0.00, 0.00, 0.00, 0.00, 0.00, 0.00, 0.000, 0.000, 0.000, 11:27:38.762, 1561476458762
62, -40658.87, -18644.97, 0.00, 0.00, 0.00, 0.00, 0.00, 0.00, 0.000, 0.000, 0.000, 11:27:38.762, 1561476458762
63, -41659.11, -19617.46, 0.00, 0.00, 0.00, 0.00, 0.00, 0.00, 0.000, 0.000, 0.000, 11:27:38.762, 1561476458762
64, -41191.40, -19166.73, 0.00, 0.00, 0.00, 0.00, 0.00, 0.00, 0.000, 0.000, 0.000, 11:27:38.762, 1561476458762
65, -40131.68, -18130.48, 0.00, 0.00, 0.00, 0.00, 0.00, 0.00, 0.000, 0.000, 0.000, 11:27:38.762, 1561476458762
66, -40472.57, -18464.64, 0.00, 0.00, 0.00, 0.00, 0.00, 0.00, 0.000, 0.000, 0.000, 11:27:38.762, 1561476458762
67, -41550.84, -19517.27, 0.00, 0.00, 0.00, 0.00, 0.00, 0.00, 0.000, 0.000, 0.000, 11:27:38.763, 1561476458763
68, -41351.55, -19330.26, 0.00, 0.00, 0.00, 0.00, 0.00, 0.00, 0.076, -0.036, 1.036, 11:27:38.763, 1561476458763
69, -40253.64, -18259.32, 0.00, 0.00, 0.00, 0.00, 0.00, 0.00, 0.000, 0.000, 0.000, 11:27:38.763, 1561476458763
70, -40319.06, -18315.02, 0.00, 0.00, 0.00, 0.00, 0.00, 0.00, 0.000, 0.000, 0.000, 11:27:38.763, 1561476458763
71, -41427.97, -19385.09, 0.00, 0.00, 0.00, 0.00, 0.00, 0.00, 0.000, 0.000, 0.000, 11:27:38.763, 1561476458763
72, -41506.00, -19465.15, 0.00, 0.00, 0.00, 0.00, 0.00, 0.00, 0.000, 0.000, 0.000, 11:27:38.763, 1561476458763
73, -40402.48, -18398.01, 0.00, 0.00, 0.00, 0.00, 0.00, 0.00, 0.000, 0.000, 0.000, 11:27:38.763, 1561476458763
74, -40185.69, -18187.19, 0.00, 0.00, 0.00, 0.00, 0.00, 0.00, 0.000, 0.000, 0.000, 11:27:38.763, 1561476458763
75, -41263.38, -19229.03, 0.00, 0.00, 0.00, 0.00, 0.00, 0.00, 0.000, 0.000, 0.000, 11:27:38.763, 1561476458763
76, -41632.13, -19586.47, 0.00, 0.00, 0.00, 0.00, 0.00, 0.00, 0.000, 0.000, 0.000, 11:27:38.763, 1561476458763
77, -40627.07, -18614.09, 0.00, 0.00, 0.00, 0.00, 0.00, 0.00, 0.000, 0.000, 0.000, 11:27:38.763, 1561476458763
78, -40105.24, -18110.59, 0.00, 0.00, 0.00, 0.00, 0.00, 0.00, 0.072, -0.038, 1.034, 11:27:38.764, 1561476458764
79, -41044.77, -19025.87, 0.00, 0.00, 0.00, 0.00, 0.00, 0.00, 0.000, 0.000, 0.000, 11:27:38.764, 1561476458764
80, -41676.12, -19638.80, 0.00, 0.00, 0.00, 0.00, 0.00, 0.00, 0.000, 0.000, 0.000, 11:27:38.764, 1561476458764
81, -40800.14, -18787.78, 0.00, 0.00, 0.00, 0.00, 0.00, 0.00, 0.000, 0.000, 0.000, 11:27:38.764, 1561476458764
82, -40062.98, -18065.82, 0.00, 0.00, 0.00, 0.00, 0.00, 0.00, 0.000, 0.000, 0.000, 11:27:38.764, 1561476458764
83, -40858.36, -18833.31, 0.00, 0.00, 0.00, 0.00, 0.00, 0.00, 0.000, 0.000, 0.000, 11:27:38.764, 1561476458764
84, -41692.46, -19645.98, 0.00, 0.00, 0.00, 0.00, 0.00, 0.00, 0.000, 0.000, 0.000, 11:27:38.764, 1561476458764
85, -40997.39, -18974.33, 0.00, 0.00, 0.00, 0.00, 0.00, 0.00, 0.000, 0.000, 0.000, 11:27:38.764, 1561476458764
86, -40069.95, -18073.49, 0.00, 0.00, 0.00, 0.00, 0.00, 0.00, 0.000, 0.000, 0.000, 11:27:38.764, 1561476458764
87, -40661.46, -18645.40, 0.00, 0.00, 0.00, 0.00, 0.00, 0.00, 0.000, 0.000, 0.000, 11:27:38.764, 1561476458764
88, -41674.85, -19630.35, 0.00, 0.00, 0.00, 0.00, 0.00, 0.00, 0.070, -0.038, 1.036, 11:27:38.764, 1561476458764
89, -41211.07, -19177.91, 0.00, 0.00, 0.00, 0.00, 0.00, 0.00, 0.000, 0.000, 0.000, 11:27:38.765, 1561476458765
90, -40162.02, -18163.52, 0.00, 0.00, 0.00, 0.00, 0.00, 0.00, 0.000, 0.000, 0.000, 11:27:38.765, 1561476458765
91, -40470.65, -18467.48, 0.00, 0.00, 0.00, 0.00, 0.00, 0.00, 0.000, 0.000, 0.000, 11:27:38.765, 1561476458765
92, -41566.42, -19531.94, 0.00, 0.00, 0.00, 0.00, 0.00, 0.00, 0.000, 0.000, 0.000, 11:27:38.765, 1561476458765
93, -41362.59, -19334.19, 0.00, 0.00, 0.00, 0.00, 0.00, 0.00, 0.000, 0.000, 0.000, 11:27:38.765, 1561476458765
94, -40253.72, -18250.49, 0.00, 0.00, 0.00, 0.00, 0.00, 0.00, 0.000, 0.000, 0.000, 11:27:38.765, 1561476458765
95, -40294.85, -18286.47, 0.00, 0.00, 0.00, 0.00, 0.00, 0.00, 0.000, 0.000, 0.000, 11:27:38.765, 1561476458765
96, -41382.82, -19351.38, 0.00, 0.00, 0.00, 0.00, 0.00, 0.00, 0.000, 0.000, 0.000, 11:27:38.765, 1561476458765
97, -41506.92, -19468.75, 0.00, 0.00, 0.00, 0.00, 0.00, 0.00, 0.000, 0.000, 0.000, 11:27:38.765, 1561476458765
98, -40447.65, -18440.21, 0.00, 0.00, 0.00, 0.00, 0.00, 0.00, 0.064, -0.038, 1.038, 11:27:38.765, 1561476458765
99, -40199.70, -18197.09, 0.00, 0.00, 0.00, 0.00, 0.00, 0.00, 0.000, 0.000, 0.000, 11:27:38.765, 1561476458765
100, -41236.71, -19206.56, 0.00, 0.00, 0.00, 0.00, 0.00, 0.00, 0.000, 0.000, 0.000, 11:27:38.765, 1561476458765
101, -41627.39, -19590.05, 0.00, 0.00, 0.00, 0.00, 0.00, 0.00, 0.000, 0.000, 0.000, 11:27:38.766, 1561476458766
102, -40622.24, -18611.69, 0.00, 0.00, 0.00, 0.00, 0.00, 0.00, 0.000, 0.000, 0.000, 11:27:38.766, 1561476458766
103, -40096.39, -18095.99, 0.00, 0.00, 0.00, 0.00, 0.00, 0.00, 0.000, 0.000, 0.000, 11:27:38.766, 1561476458766
104, -41044.91, -19014.40, 0.00, 0.00, 0.00, 0.00, 0.00, 0.00, 0.000, 0.000, 0.000, 11:27:38.766, 1561476458766
105, -41685.58, -19638.76, 0.00, 0.00, 0.00, 0.00, 0.00, 0.00, 0.000, 0.000, 0.000, 11:27:39.236, 1561476459236
106, -40789.45, -18773.99, 0.00, 0.00, 0.00, 0.00, 0.00, 0.00, 0.000, 0.000, 0.000, 11:27:39.237, 1561476459237
107, -40039.30, -18042.75, 0.00, 0.00, 0.00, 0.00, 0.00, 0.00, 0.000, 0.000, 0.000, 11:27:39.237, 1561476459237
108, -40840.64, -18819.34, 0.00, 0.00, 0.00, 0.00, 0.00, 0.00, 0.074, -0.034, 1.038, 11:27:39.237, 1561476459237
109, -41708.33, -19662.43, 0.00, 0.00, 0.00, 0.00, 0.00, 0.00, 0.000, 0.000, 0.000, 11:27:39.238, 1561476459238
110, -41022.47, -18999.59, 0.00, 0.00, 0.00, 0.00, 0.00, 0.00, 0.000, 0.000, 0.000, 11:27:39.238, 1561476459238
111, -40064.50, -18068.57, 0.00, 0.00, 0.00, 0.00, 0.00, 0.00, 0.000, 0.000, 0.000, 11:27:39.238, 1561476459238
112, -40621.57, -18610.49, 0.00, 0.00, 0.00, 0.00, 0.00, 0.00, 0.000, 0.000, 0.000, 11:27:39.238, 1561476459238
113, -41642.33, -19599.22, 0.00, 0.00, 0.00, 0.00, 0.00, 0.00, 0.000, 0.000, 0.000, 11:27:39.238, 1561476459238
114, -41224.91, -19189.60, 0.00, 0.00, 0.00, 0.00, 0.00, 0.00, 0.000, 0.000, 0.000, 11:27:39.238, 1561476459238
115, -40170.40, -18161.60, 0.00, 0.00, 0.00, 0.00, 0.00, 0.00, 0.000, 0.000, 0.000, 11:27:39.238, 1561476459238
116, -40472.95, -18458.00, 0.00, 0.00, 0.00, 0.00, 0.00, 0.00, 0.000, 0.000, 0.000, 11:27:39.238, 1561476459238
117, -41556.41, -19518.35, 0.00, 0.00, 0.00, 0.00, 0.00, 0.00, 0.000, 0.000, 0.000, 11:27:39.238, 1561476459238
118, -41380.61, -19351.98, 0.00, 0.00, 0.00, 0.00, 0.00, 0.00, 0.070, -0.036, 1.034, 11:27:39.238, 1561476459238
119, -40268.39, -18268.59, 0.00, 0.00, 0.00, 0.00, 0.00, 0.00, 0.000, 0.000, 0.000, 11:27:39.238, 1561476459238
120, -40280.88, -18277.96, 0.00, 0.00, 0.00, 0.00, 0.00, 0.00, 0.000, 0.000, 0.000, 11:27:39.238, 1561476459238
121, -41384.41, -19353.62, 0.00, 0.00, 0.00, 0.00, 0.00, 0.00, 0.000, 0.000, 0.000, 11:27:39.238, 1561476459238
122, -41512.78, -19480.97, 0.00, 0.00, 0.00, 0.00, 0.00, 0.00, 0.000, 0.000, 0.000, 11:27:39.238, 1561476459238
123, -40440.16, -18433.60, 0.00, 0.00, 0.00, 0.00, 0.00, 0.00, 0.000, 0.000, 0.000, 11:27:39.238, 1561476459238
124, -40188.75, -18182.23, 0.00, 0.00, 0.00, 0.00, 0.00, 0.00, 0.000, 0.000, 0.000, 11:27:39.238, 1561476459238
125, -41253.29, -19224.04, 0.00, 0.00, 0.00, 0.00, 0.00, 0.00, 0.000, 0.000, 0.000, 11:27:39.238, 1561476459238
126, -41646.42, -19603.71, 0.00, 0.00, 0.00, 0.00, 0.00, 0.00, 0.000, 0.000, 0.000, 11:27:39.238, 1561476459238
127, -40639.88, -18621.01, 0.00, 0.00, 0.00, 0.00, 0.00, 0.00, 0.000, 0.000, 0.000, 11:27:39.238, 1561476459238
128, -40120.08, -18115.89, 0.00, 0.00, 0.00, 0.00, 0.00, 0.00, 0.000, 0.000, 0.000, 11:27:39.239, 1561476459239
129, -41065.61, -19037.14, 0.00, 0.00, 0.00, 0.00, 0.00, 0.00, 0.062, -0.036, 1.040, 11:27:39.239, 1561476459239
130, -41706.21, -19659.12, 0.00, 0.00, 0.00, 0.00, 0.00, 0.00, 0.000, 0.000, 0.000, 11:27:39.239, 1561476459239
131, -40827.79, -18801.62, 0.00, 0.00, 0.00, 0.00, 0.00, 0.00, 0.000, 0.000, 0.000, 11:27:39.239, 1561476459239
132, -40041.43, -18038.88, 0.00, 0.00, 0.00, 0.00, 0.00, 0.00, 0.000, 0.000, 0.000, 11:27:39.239, 1561476459239
133, -40819.71, -18793.55, 0.00, 0.00, 0.00, 0.00, 0.00, 0.00, 0.000, 0.000, 0.000, 11:27:39.239, 1561476459239
134, -41698.07, -19650.58, 0.00, 0.00, 0.00, 0.00, 0.00, 0.00, 0.000, 0.000, 0.000, 11:27:39.239, 1561476459239
135, -41005.32, -18985.28, 0.00, 0.00, 0.00, 0.00, 0.00, 0.00, 0.000, 0.000, 0.000, 11:27:39.239, 1561476459239
136, -40054.44, -18063.18, 0.00, 0.00, 0.00, 0.00, 0.00, 0.00, 0.000, 0.000, 0.000, 11:27:39.239, 1561476459239
137, -40661.29, -18647.03, 0.00, 0.00, 0.00, 0.00, 0.00, 0.00, 0.000, 0.000, 0.000, 11:27:39.239, 1561476459239
138, -41681.96, -19628.27, 0.00, 0.00, 0.00, 0.00, 0.00, 0.00, 0.000, 0.000, 0.000, 11:27:39.239, 1561476459239
139, -41213.87, -19178.44, 0.00, 0.00, 0.00, 0.00, 0.00, 0.00, 0.068, -0.042, 1.026, 11:27:39.239, 1561476459239
140, -40122.86, -18134.01, 0.00, 0.00, 0.00, 0.00, 0.00, 0.00, 0.000, 0.000, 0.000, 11:27:39.239, 1561476459239
141, -40439.71, -18434.31, 0.00, 0.00, 0.00, 0.00, 0.00, 0.00, 0.000, 0.000, 0.000, 11:27:39.239, 1561476459239
142, -41545.43, -19500.69, 0.00, 0.00, 0.00, 0.00, 0.00, 0.00, 0.000, 0.000, 0.000, 11:27:39.239, 1561476459239
143, -41391.72, -19350.06, 0.00, 0.00, 0.00, 0.00, 0.00, 0.00, 0.000, 0.000, 0.000, 11:27:39.239, 1561476459239
144, -40283.90, -18275.37, 0.00, 0.00, 0.00, 0.00, 0.00, 0.00, 0.000, 0.000, 0.000, 11:27:39.239, 1561476459239
145, -40303.48, -18297.38, 0.00, 0.00, 0.00, 0.00, 0.00, 0.00, 0.000, 0.000, 0.000, 11:27:39.239, 1561476459239
146, -41410.72, -19370.51, 0.00, 0.00, 0.00, 0.00, 0.00, 0.00, 0.000, 0.000, 0.000, 11:27:39.240, 1561476459240
147, -41536.34, -19498.25, 0.00, 0.00, 0.00, 0.00, 0.00, 0.00, 0.000, 0.000, 0.000, 11:27:39.240, 1561476459240
148, -40448.14, -18443.14, 0.00, 0.00, 0.00, 0.00, 0.00, 0.00, 0.000, 0.000, 0.000, 11:27:39.240, 1561476459240
149, -40188.68, -18187.88, 0.00, 0.00, 0.00, 0.00, 0.00, 0.00, 0.068, -0.038, 1.024, 11:27:39.240, 1561476459240
150, -41232.57, -19200.19, 0.00, 0.00, 0.00, 0.00, 0.00, 0.00, 0.000, 0.000, 0.000, 11:27:39.240, 1561476459240
151, -41631.75, -19584.35, 0.00, 0.00, 0.00, 0.00, 0.00, 0.00, 0.000, 0.000, 0.000, 11:27:39.240, 1561476459240
152, -40631.29, -18608.18, 0.00, 0.00, 0.00, 0.00, 0.00, 0.00, 0.000, 0.000, 0.000, 11:27:39.240, 1561476459240
153, -40079.14, -18071.14, 0.00, 0.00, 0.00, 0.00, 0.00, 0.00, 0.000, 0.000, 0.000, 11:27:39.240, 1561476459240
154, -41012.03, -18982.62, 0.00, 0.00, 0.00, 0.00, 0.00, 0.00, 0.000, 0.000, 0.000, 11:27:39.240, 1561476459240
155, -41684.59, -19640.12, 0.00, 0.00, 0.00, 0.00, 0.00, 0.00, 0.000, 0.000, 0.000, 11:27:39.241, 1561476459241
156, -40827.18, -18810.15, 0.00, 0.00, 0.00, 0.00, 0.00, 0.00, 0.000, 0.000, 0.000, 11:27:39.241, 1561476459241
157, -40047.78, -18050.42, 0.00, 0.00, 0.00, 0.00, 0.00, 0.00, 0.000, 0.000, 0.000, 11:27:39.241, 1561476459241
158, -40826.36, -18802.02, 0.00, 0.00, 0.00, 0.00, 0.00, 0.00, 0.000, 0.000, 0.000, 11:27:39.241, 1561476459241
159, -41707.17, -19654.87, 0.00, 0.00, 0.00, 0.00, 0.00, 0.00, 0.070, -0.034, 1.032, 11:27:39.241, 1561476459241
160, -41041.54, -19008.19, 0.00, 0.00, 0.00, 0.00, 0.00, 0.00, 0.000, 0.000, 0.000, 11:27:39.241, 1561476459241
161, -40080.36, -18073.91, 0.00, 0.00, 0.00, 0.00, 0.00, 0.00, 0.000, 0.000, 0.000, 11:27:39.241, 1561476459241
162, -40627.87, -18607.69, 0.00, 0.00, 0.00, 0.00, 0.00, 0.00, 0.000, 0.000, 0.000, 11:27:39.241, 1561476459241
163, -41658.49, -19603.98, 0.00, 0.00, 0.00, 0.00, 0.00, 0.00, 0.000, 0.000, 0.000, 11:27:39.241, 1561476459241
164, -41241.25, -19196.59, 0.00, 0.00, 0.00, 0.00, 0.00, 0.00, 0.000, 0.000, 0.000, 11:27:39.241, 1561476459241
165, -40175.79, -18164.37, 0.00, 0.00, 0.00, 0.00, 0.00, 0.00, 0.000, 0.000, 0.000, 11:27:39.242, 1561476459242
166, -40464.61, -18444.53, 0.00, 0.00, 0.00, 0.00, 0.00, 0.00, 0.000, 0.000, 0.000, 11:27:39.242, 1561476459242
167, -41555.85, -19505.88, 0.00, 0.00, 0.00, 0.00, 0.00, 0.00, 0.000, 0.000, 0.000, 11:27:39.242, 1561476459242
168, -41397.82, -19356.54, 0.00, 0.00, 0.00, 0.00, 0.00, 0.00, 0.000, 0.000, 0.000, 11:27:39.242, 1561476459242
169, -40281.91, -18272.35, 0.00, 0.00, 0.00, 0.00, 0.00, 0.00, 0.068, -0.034, 1.024, 11:27:39.242, 1561476459242
170, -40277.30, -18269.91, 0.00, 0.00, 0.00, 0.00, 0.00, 0.00, 0.000, 0.000, 0.000, 11:27:39.242, 1561476459242
171, -41360.11, -19322.77, 0.00, 0.00, 0.00, 0.00, 0.00, 0.00, 0.000, 0.000, 0.000, 11:27:39.242, 1561476459242
172, -41513.83, -19474.56, 0.00, 0.00, 0.00, 0.00, 0.00, 0.00, 0.000, 0.000, 0.000, 11:27:39.242, 1561476459242
173, -40447.25, -18439.72, 0.00, 0.00, 0.00, 0.00, 0.00, 0.00, 0.000, 0.000, 0.000, 11:27:39.242, 1561476459242
174, -40155.55, -18153.39, 0.00, 0.00, 0.00, 0.00, 0.00, 0.00, 0.000, 0.000, 0.000, 11:27:39.242, 1561476459242
175, -41194.15, -19161.46, 0.00, 0.00, 0.00, 0.00, 0.00, 0.00, 0.000, 0.000, 0.000, 11:27:39.242, 1561476459242
176, -41644.38, -19596.33, 0.00, 0.00, 0.00, 0.00, 0.00, 0.00, 0.000, 0.000, 0.000, 11:27:39.242, 1561476459242
177, -40645.80, -18626.85, 0.00, 0.00, 0.00, 0.00, 0.00, 0.00, 0.000, 0.000, 0.000, 11:27:39.243, 1561476459243
178, -40043.64, -18039.40, 0.00, 0.00, 0.00, 0.00, 0.00, 0.00, 0.000, 0.000, 0.000, 11:27:39.243, 1561476459243
179, -40953.80, -18919.39, 0.00, 0.00, 0.00, 0.00, 0.00, 0.00, 0.000, 0.000, 0.000, 11:27:39.243, 1561476459243
180, -41658.51, -19605.61, 0.00, 0.00, 0.00, 0.00, 0.00, 0.00, 0.074, -0.032, 1.030, 11:27:39.243, 1561476459243
181, -40868.09, -18843.75, 0.00, 0.00, 0.00, 0.00, 0.00, 0.00, 0.000, 0.000, 0.000, 11:27:39.243, 1561476459243
182, -40111.01, -18106.68, 0.00, 0.00, 0.00, 0.00, 0.00, 0.00, 0.000, 0.000, 0.000, 11:27:39.243, 1561476459243
183, -40885.63, -18856.42, 0.00, 0.00, 0.00, 0.00, 0.00, 0.00, 0.000, 0.000, 0.000, 11:27:39.243, 1561476459243
184, -41772.04, -19715.38, 0.00, 0.00, 0.00, 0.00, 0.00, 0.00, 0.000, 0.000, 0.000, 11:27:39.243, 1561476459243
185, -41094.82, -19058.48, 0.00, 0.00, 0.00, 0.00, 0.00, 0.00, 0.000, 0.000, 0.000, 11:27:39.243, 1561476459243
186, -40100.39, -18092.89, 0.00, 0.00, 0.00, 0.00, 0.00, 0.00, 0.000, 0.000, 0.000, 11:27:39.243, 1561476459243
187, -40596.04, -18578.46, 0.00, 0.00, 0.00, 0.00, 0.00, 0.00, 0.000, 0.000, 0.000, 11:27:39.243, 1561476459243
188, -41614.01, -19564.12, 0.00, 0.00, 0.00, 0.00, 0.00, 0.00, 0.000, 0.000, 0.000, 11:27:39.243, 1561476459243
189, -41212.70, -19173.57, 0.00, 0.00, 0.00, 0.00, 0.00, 0.00, 0.000, 0.000, 0.000, 11:27:39.243, 1561476459243
190, -40152.43, -18144.45, 0.00, 0.00, 0.00, 0.00, 0.00, 0.00, 0.074, -0.036, 1.030, 11:27:39.244, 1561476459244
191, -40457.89, -18437.37, 0.00, 0.00, 0.00, 0.00, 0.00, 0.00, 0.000, 0.000, 0.000, 11:27:39.244, 1561476459244
192, -41561.46, -19511.87, 0.00, 0.00, 0.00, 0.00, 0.00, 0.00, 0.000, 0.000, 0.000, 11:27:39.244, 1561476459244
193, -41416.98, -19376.93, 0.00, 0.00, 0.00, 0.00, 0.00, 0.00, 0.000, 0.000, 0.000, 11:27:39.244, 1561476459244
194, -40296.39, -18288.96, 0.00, 0.00, 0.00, 0.00, 0.00, 0.00, 0.000, 0.000, 0.000, 11:27:39.244, 1561476459244
195, -40272.75, -18260.39, 0.00, 0.00, 0.00, 0.00, 0.00, 0.00, 0.000, 0.000, 0.000, 11:27:39.244, 1561476459244
196, -41358.26, -19315.75, 0.00, 0.00, 0.00, 0.00, 0.00, 0.00, 0.000, 0.000, 0.000, 11:27:39.244, 1561476459244
197, -41510.27, -19469.04, 0.00, 0.00, 0.00, 0.00, 0.00, 0.00, 0.000, 0.000, 0.000, 11:27:39.244, 1561476459244
198, -40468.43, -18450.56, 0.00, 0.00, 0.00, 0.00, 0.00, 0.00, 0.000, 0.000, 0.000, 11:27:39.244, 1561476459244
199, -40212.66, -18194.79, 0.00, 0.00, 0.00, 0.00, 0.00, 0.00, 0.000, 0.000, 0.000, 11:27:39.244, 1561476459244
200, -41242.59, -19196.37, 0.00, 0.00, 0.00, 0.00, 0.00, 0.00, 0.070, -0.034, 1.032, 11:27:39.244, 1561476459244
201, -41677.78, -19620.49, 0.00, 0.00, 0.00, 0.00, 0.00, 0.00, 0.000, 0.000, 0.000, 11:27:39.244, 1561476459244
202, -40676.04, -18650.92, 0.00, 0.00, 0.00, 0.00, 0.00, 0.00, 0.000, 0.000, 0.000, 11:27:39.245, 1561476459245
203, -40088.57, -18084.57, 0.00, 0.00, 0.00, 0.00, 0.00, 0.00, 0.000, 0.000, 0.000, 11:27:39.245, 1561476459245
204, -41010.91, -18973.30, 0.00, 0.00, 0.00, 0.00, 0.00, 0.00, 0.000, 0.000, 0.000, 11:27:39.245, 1561476459245
205, -41697.36, -19639.81, 0.00, 0.00, 0.00, 0.00, 0.00, 0.00, 0.000, 0.000, 0.000, 11:27:39.245, 1561476459245
206, -40867.61, -18835.12, 0.00, 0.00, 0.00, 0.00, 0.00, 0.00, 0.000, 0.000, 0.000, 11:27:39.245, 1561476459245
207, -40061.59, -18048.72, 0.00, 0.00, 0.00, 0.00, 0.00, 0.00, 0.000, 0.000, 0.000, 11:27:39.245, 1561476459245
208, -40808.23, -18768.36, 0.00, 0.00, 0.00, 0.00, 0.00, 0.00, 0.000, 0.000, 0.000, 11:27:39.245, 1561476459245
209, -41704.40, -19641.39, 0.00, 0.00, 0.00, 0.00, 0.00, 0.00, 0.000, 0.000, 0.000, 11:27:39.245, 1561476459245
210, -41059.13, -19023.84, 0.00, 0.00, 0.00, 0.00, 0.00, 0.00, 0.068, -0.036, 1.028, 11:27:39.245, 1561476459245
211, -40090.29, -18087.05, 0.00, 0.00, 0.00, 0.00, 0.00, 0.00, 0.000, 0.000, 0.000, 11:27:39.245, 1561476459245
212, -40616.98, -18594.62, 0.00, 0.00, 0.00, 0.00, 0.00, 0.00, 0.000, 0.000, 0.000, 11:27:39.245, 1561476459245
213, -41655.18, -19601.96, 0.00, 0.00, 0.00, 0.00, 0.00, 0.00, 0.000, 0.000, 0.000, 11:27:39.245, 1561476459245
214, -41254.52, -19208.33, 0.00, 0.00, 0.00, 0.00, 0.00, 0.00, 0.000, 0.000, 0.000, 11:27:39.245, 1561476459245
215, -40162.66, -18145.68, 0.00, 0.00, 0.00, 0.00, 0.00, 0.00, 0.000, 0.000, 0.000, 11:27:39.246, 1561476459246
216, -40421.72, -18403.46, 0.00, 0.00, 0.00, 0.00, 0.00, 0.00, 0.000, 0.000, 0.000, 11:27:39.246, 1561476459246
217, -41538.01, -19487.81, 0.00, 0.00, 0.00, 0.00, 0.00, 0.00, 0.000, 0.000, 0.000, 11:27:39.246, 1561476459246
218, -41412.35, -19365.93, 0.00, 0.00, 0.00, 0.00, 0.00, 0.00, 0.000, 0.000, 0.000, 11:27:39.246, 1561476459246
219, -40305.71, -18287.48, 0.00, 0.00, 0.00, 0.00, 0.00, 0.00, 0.000, 0.000, 0.000, 11:27:39.246, 1561476459246
220, -40290.45, -18273.62, 0.00, 0.00, 0.00, 0.00, 0.00, 0.00, 0.074, -0.038, 1.030, 11:27:39.246, 1561476459246
221, -41382.00, -19336.63, 0.00, 0.00, 0.00, 0.00, 0.00, 0.00, 0.000, 0.000, 0.000, 11:27:39.246, 1561476459246
222, -41546.91, -19498.83, 0.00, 0.00, 0.00, 0.00, 0.00, 0.00, 0.000, 0.000, 0.000, 11:27:39.246, 1561476459246
223, -40463.50, -18447.70, 0.00, 0.00, 0.00, 0.00, 0.00, 0.00, 0.000, 0.000, 0.000, 11:27:39.246, 1561476459246
224, -40151.93, -18139.65, 0.00, 0.00, 0.00, 0.00, 0.00, 0.00, 0.000, 0.000, 0.000, 11:27:39.246, 1561476459246
225, -41193.75, -19142.97, 0.00, 0.00, 0.00, 0.00, 0.00, 0.00, 0.000, 0.000, 0.000, 11:27:39.716, 1561476459716
226, -41643.69, -19585.02, 0.00, 0.00, 0.00, 0.00, 0.00, 0.00, 0.000, 0.000, 0.000, 11:27:39.717, 1561476459717
227, -40674.30, -18644.80, 0.00, 0.00, 0.00, 0.00, 0.00, 0.00, 0.000, 0.000, 0.000, 11:27:39.717, 1561476459717
228, -40097.44, -18084.73, 0.00, 0.00, 0.00, 0.00, 0.00, 0.00, 0.000, 0.000, 0.000, 11:27:39.717, 1561476459717
229, -41002.53, -18962.48, 0.00, 0.00, 0.00, 0.00, 0.00, 0.00, 0.000, 0.000, 0.000, 11:27:39.717, 1561476459717
230, -41688.62, -19634.44, 0.00, 0.00, 0.00, 0.00, 0.00, 0.00, 0.074, -0.038, 1.034, 11:27:39.717, 1561476459717
231, -40859.05, -18827.01, 0.00, 0.00, 0.00, 0.00, 0.00, 0.00, 0.000, 0.000, 0.000, 11:27:39.717, 1561476459717
232, -40047.91, -18035.04, 0.00, 0.00, 0.00, 0.00, 0.00, 0.00, 0.000, 0.000, 0.000, 11:27:39.717, 1561476459717
233, -40776.66, -18741.54, 0.00, 0.00, 0.00, 0.00, 0.00, 0.00, 0.000, 0.000, 0.000, 11:27:39.717, 1561476459717
234, -41685.71, -19625.35, 0.00, 0.00, 0.00, 0.00, 0.00, 0.00, 0.000, 0.000, 0.000, 11:27:39.717, 1561476459717
235, -41089.14, -19045.59, 0.00, 0.00, 0.00, 0.00, 0.00, 0.00, 0.000, 0.000, 0.000, 11:27:39.717, 1561476459717
236, -40112.04, -18102.23, 0.00, 0.00, 0.00, 0.00, 0.00, 0.00, 0.000, 0.000, 0.000, 11:27:39.717, 1561476459717
237, -40601.41, -18577.34, 0.00, 0.00, 0.00, 0.00, 0.00, 0.00, 0.000, 0.000, 0.000, 11:27:39.718, 1561476459718
238, -41636.07, -19581.13, 0.00, 0.00, 0.00, 0.00, 0.00, 0.00, 0.000, 0.000, 0.000, 11:27:39.718, 1561476459718
239, -41262.01, -19210.72, 0.00, 0.00, 0.00, 0.00, 0.00, 0.00, 0.000, 0.000, 0.000, 11:27:39.718, 1561476459718
240, -40181.80, -18165.06, 0.00, 0.00, 0.00, 0.00, 0.00, 0.00, 0.000, 0.000, 0.000, 11:27:39.718, 1561476459718
241, -40414.05, -18388.06, 0.00, 0.00, 0.00, 0.00, 0.00, 0.00, 0.070, -0.046, 1.028, 11:27:39.718, 1561476459718
242, -41509.00, -19449.62, 0.00, 0.00, 0.00, 0.00, 0.00, 0.00, 0.000, 0.000, 0.000, 11:27:39.718, 1561476459718
243, -41412.51, -19355.69, 0.00, 0.00, 0.00, 0.00, 0.00, 0.00, 0.000, 0.000, 0.000, 11:27:39.718, 1561476459718
244, -40306.74, -18282.27, 0.00, 0.00, 0.00, 0.00, 0.00, 0.00, 0.000, 0.000, 0.000, 11:27:39.718, 1561476459718
245, -40246.77, -18223.09, 0.00, 0.00, 0.00, 0.00, 0.00, 0.00, 0.000, 0.000, 0.000, 11:27:39.718, 1561476459718
246, -41310.74, -19260.41, 0.00, 0.00, 0.00, 0.00, 0.00, 0.00, 0.000, 0.000, 0.000, 11:27:39.718, 1561476459718
247, -41486.85, -19436.54, 0.00, 0.00, 0.00, 0.00, 0.00, 0.00, 0.000, 0.000, 0.000, 11:27:39.718, 1561476459718
248, -40445.59, -18427.07, 0.00, 0.00, 0.00, 0.00, 0.00, 0.00, 0.000, 0.000, 0.000, 11:27:39.718, 1561476459718
249, -40149.12, -18136.07, 0.00, 0.00, 0.00, 0.00, 0.00, 0.00, 0.000, 0.000, 0.000, 11:27:39.719, 1561476459719
250, -41173.23, -19130.66, 0.00, 0.00, 0.00, 0.00, 0.00, 0.00, 0.000, 0.000, 0.000, 11:27:39.719, 1561476459719
251, -41643.58, -19588.44, 0.00, 0.00, 0.00, 0.00, 0.00, 0.00, 0.076, -0.040, 1.024, 11:27:39.719, 1561476459719
252, -40666.07, -18641.29, 0.00, 0.00, 0.00, 0.00, 0.00, 0.00, 0.000, 0.000, 0.000, 11:27:39.721, 1561476459721
253, -40089.64, -18077.69, 0.00, 0.00, 0.00, 0.00, 0.00, 0.00, 0.000, 0.000, 0.000, 11:27:39.722, 1561476459722
254, -40970.95, -18930.83, 0.00, 0.00, 0.00, 0.00, 0.00, 0.00, 0.000, 0.000, 0.000, 11:27:39.722, 1561476459722
255, -41661.44, -19601.90, 0.00, 0.00, 0.00, 0.00, 0.00, 0.00, 0.000, 0.000, 0.000, 11:27:39.723, 1561476459723
0, -40871.21, -18836.91, 0.00, 0.00, 0.00, 0.00, 0.00, 0.00, 0.000, 0.000, 0.000, 11:27:39.723, 1561476459723
1, -40053.39, -18042.39, 0.00, 0.00, 0.00, 0.00, 0.00, 0.00, 0.000, 0.000, 0.000, 11:27:39.723, 1561476459723
2, -40760.04, -18724.55, 0.00, 0.00, 0.00, 0.00, 0.00, 0.00, 0.000, 0.000, 0.000, 11:27:39.723, 1561476459723
3, -41663.85, -19603.33, 0.00, 0.00, 0.00, 0.00, 0.00, 0.00, 0.000, 0.000, 0.000, 11:27:39.723, 1561476459723
4, -41054.66, -19010.76, 0.00, 0.00, 0.00, 0.00, 0.00, 0.00, 0.000, 0.000, 0.000, 11:27:39.724, 1561476459724
5, -40080.48, -18065.78, 0.00, 0.00, 0.00, 0.00, 0.00, 0.00, 0.070, -0.040, 1.032, 11:27:39.724, 1561476459724
6, -40581.00, -18547.74, 0.00, 0.00, 0.00, 0.00, 0.00, 0.00, 0.000, 0.000, 0.000, 11:27:39.724, 1561476459724
7, -41624.13, -19560.66, 0.00, 0.00, 0.00, 0.00, 0.00, 0.00, 0.000, 0.000, 0.000, 11:27:39.724, 1561476459724
8, -41249.52, -19200.26, 0.00, 0.00, 0.00, 0.00, 0.00, 0.00, 0.000, 0.000, 0.000, 11:27:39.724, 1561476459724
9, -40163.38, -18148.36, 0.00, 0.00, 0.00, 0.00, 0.00, 0.00, 0.000, 0.000, 0.000, 11:27:39.725, 1561476459725
10, -40388.59, -18370.92, 0.00, 0.00, 0.00, 0.00, 0.00, 0.00, 0.000, 0.000, 0.000, 11:27:39.725, 1561476459725
11, -41476.79, -19428.63, 0.00, 0.00, 0.00, 0.00, 0.00, 0.00, 0.000, 0.000, 0.000, 11:27:39.725, 1561476459725
12, -41394.20, -19350.15, 0.00, 0.00, 0.00, 0.00, 0.00, 0.00, 0.000, 0.000, 0.000, 11:27:39.725, 1561476459725
13, -40301.98, -18288.42, 0.00, 0.00, 0.00, 0.00, 0.00, 0.00, 0.000, 0.000, 0.000, 11:27:39.725, 1561476459725
14, -40236.85, -18217.95, 0.00, 0.00, 0.00, 0.00, 0.00, 0.00, 0.000, 0.000, 0.000, 11:27:39.725, 1561476459725
15, -41329.43, -19276.19, 0.00, 0.00, 0.00, 0.00, 0.00, 0.00, 0.078, -0.040, 1.034, 11:27:39.726, 1561476459726
16, -41545.23, -19487.61, 0.00, 0.00, 0.00, 0.00, 0.00, 0.00, 0.000, 0.000, 0.000, 11:27:39.726, 1561476459726
17, -40483.72, -18459.48, 0.00, 0.00, 0.00, 0.00, 0.00, 0.00, 0.000, 0.000, 0.000, 11:27:39.726, 1561476459726
18, -40134.55, -18115.17, 0.00, 0.00, 0.00, 0.00, 0.00, 0.00, 0.000, 0.000, 0.000, 11:27:39.726, 1561476459726
19, -41120.91, -19074.29, 0.00, 0.00, 0.00, 0.00, 0.00, 0.00, 0.000, 0.000, 0.000, 11:27:39.726, 1561476459726
20, -41602.21, -19547.14, 0.00, 0.00, 0.00, 0.00, 0.00, 0.00, 0.000, 0.000, 0.000, 11:27:39.726, 1561476459726
21, -40654.74, -18625.73, 0.00, 0.00, 0.00, 0.00, 0.00, 0.00, 0.000, 0.000, 0.000, 11:27:39.726, 1561476459726
22, -40055.60, -18043.94, 0.00, 0.00, 0.00, 0.00, 0.00, 0.00, 0.000, 0.000, 0.000, 11:27:39.726, 1561476459726
23, -40947.77, -18912.53, 0.00, 0.00, 0.00, 0.00, 0.00, 0.00, 0.000, 0.000, 0.000, 11:27:39.726, 1561476459726
24, -41683.81, -19629.19, 0.00, 0.00, 0.00, 0.00, 0.00, 0.00, 0.000, 0.000, 0.000, 11:27:39.726, 1561476459726
25, -40897.61, -18864.45, 0.00, 0.00, 0.00, 0.00, 0.00, 0.00, 0.080, -0.042, 1.034, 11:27:39.727, 1561476459727
26, -40046.99, -18035.53, 0.00, 0.00, 0.00, 0.00, 0.00, 0.00, 0.000, 0.000, 0.000, 11:27:39.727, 1561476459727
27, -40743.12, -18707.29, 0.00, 0.00, 0.00, 0.00, 0.00, 0.00, 0.000, 0.000, 0.000, 11:27:39.727, 1561476459727
28, -41664.21, -19606.53, 0.00, 0.00, 0.00, 0.00, 0.00, 0.00, 0.000, 0.000, 0.000, 11:27:39.727, 1561476459727
29, -41092.94, -19055.02, 0.00, 0.00, 0.00, 0.00, 0.00, 0.00, 0.000, 0.000, 0.000, 11:27:39.727, 1561476459727
30, -40103.72, -18092.26, 0.00, 0.00, 0.00, 0.00, 0.00, 0.00, 0.000, 0.000, 0.000, 11:27:39.727, 1561476459727
31, -40565.69, -18539.81, 0.00, 0.00, 0.00, 0.00, 0.00, 0.00, 0.000, 0.000, 0.000, 11:27:39.727, 1561476459727
32, -41601.96, -19547.05, 0.00, 0.00, 0.00, 0.00, 0.00, 0.00, 0.000, 0.000, 0.000, 11:27:39.727, 1561476459727
33, -41258.39, -19211.95, 0.00, 0.00, 0.00, 0.00, 0.00, 0.00, 0.000, 0.000, 0.000, 11:27:39.728, 1561476459728
34, -40177.57, -18160.54, 0.00, 0.00, 0.00, 0.00, 0.00, 0.00, 0.000, 0.000, 0.000, 11:27:39.728, 1561476459728
35, -40377.55, -18353.78, 0.00, 0.00, 0.00, 0.00, 0.00, 0.00, 0.000, 0.000, 0.000, 11:27:39.728, 1561476459728
36, -41450.44, -19393.00, 0.00, 0.00, 0.00, 0.00, 0.00, 0.00, 0.074, -0.038, 1.036, 11:27:39.728, 1561476459728
37, -41370.51, -19316.00, 0.00, 0.00, 0.00, 0.00, 0.00, 0.00, 0.000, 0.000, 0.000, 11:27:39.728, 1561476459728
38, -40270.20, -18250.78, 0.00, 0.00, 0.00, 0.00, 0.00, 0.00, 0.000, 0.000, 0.000, 11:27:39.728, 1561476459728
39, -40225.74, -18203.15, 0.00, 0.00, 0.00, 0.00, 0.00, 0.00, 0.000, 0.000, 0.000, 11:27:39.728, 1561476459728
40, -41341.56, -19283.83, 0.00, 0.00, 0.00, 0.00, 0.00, 0.00, 0.000, 0.000, 0.000, 11:27:39.728, 1561476459728
41, -41567.96, -19507.35, 0.00, 0.00, 0.00, 0.00, 0.00, 0.00, 0.000, 0.000, 0.000, 11:27:39.729, 1561476459729
42, -40514.64, -18485.52, 0.00, 0.00, 0.00, 0.00, 0.00, 0.00, 0.000, 0.000, 0.000, 11:27:39.729, 1561476459729
43, -40134.48, -18117.85, 0.00, 0.00, 0.00, 0.00, 0.00, 0.00, 0.000, 0.000, 0.000, 11:27:39.729, 1561476459729
44, -41142.81, -19098.51, 0.00, 0.00, 0.00, 0.00, 0.00, 0.00, 0.000, 0.000, 0.000, 11:27:39.729, 1561476459729
45, -41649.46, -19593.11, 0.00, 0.00, 0.00, 0.00, 0.00, 0.00, 0.000, 0.000, 0.000, 11:27:39.729, 1561476459729
46, -40700.67, -18669.21, 0.00, 0.00, 0.00, 0.00, 0.00, 0.00, 0.072, -0.036, 1.036, 11:27:39.729, 1561476459729
47, -40058.01, -18042.93, 0.00, 0.00, 0.00, 0.00, 0.00, 0.00, 0.000, 0.000, 0.000, 11:27:39.729, 1561476459729
48, -40917.48, -18877.25, 0.00, 0.00, 0.00, 0.00, 0.00, 0.00, 0.000, 0.000, 0.000, 11:27:39.729, 1561476459729
49, -41658.18, -19597.49, 0.00, 0.00, 0.00, 0.00, 0.00, 0.00, 0.000, 0.000, 0.000, 11:27:39.729, 1561476459729
50, -40872.60, -18835.17, 0.00, 0.00, 0.00, 0.00, 0.00, 0.00, 0.000, 0.000, 0.000, 11:27:39.729, 1561476459729
51, -40034.63, -18017.00, 0.00, 0.00, 0.00, 0.00, 0.00, 0.00, 0.000, 0.000, 0.000, 11:27:39.729, 1561476459729
52, -40726.71, -18686.57, 0.00, 0.00, 0.00, 0.00, 0.00, 0.00, 0.000, 0.000, 0.000, 11:27:39.729, 1561476459729
53, -41659.05, -19596.76, 0.00, 0.00, 0.00, 0.00, 0.00, 0.00, 0.000, 0.000, 0.000, 11:27:39.729, 1561476459729
54, -41093.39, -19050.90, 0.00, 0.00, 0.00, 0.00, 0.00, 0.00, 0.000, 0.000, 0.000, 11:27:39.729, 1561476459729
55, -40093.82, -18078.00, 0.00, 0.00, 0.00, 0.00, 0.00, 0.00, 0.000, 0.000, 0.000, 11:27:39.729, 1561476459729
56, -40544.97, -18512.14, 0.00, 0.00, 0.00, 0.00, 0.00, 0.00, 0.072, -0.036, 1.034, 11:27:39.729, 1561476459729
57, -41586.67, -19526.15, 0.00, 0.00, 0.00, 0.00, 0.00, 0.00, 0.000, 0.000, 0.000, 11:27:39.730, 1561476459730
58, -41273.57, -19224.24, 0.00, 0.00, 0.00, 0.00, 0.00, 0.00, 0.000, 0.000, 0.000, 11:27:39.730, 1561476459730
59, -40181.19, -18162.96, 0.00, 0.00, 0.00, 0.00, 0.00, 0.00, 0.000, 0.000, 0.000, 11:27:39.730, 1561476459730
60, -40369.46, -18343.56, 0.00, 0.00, 0.00, 0.00, 0.00, 0.00, 0.000, 0.000, 0.000, 11:27:39.730, 1561476459730
61, -41465.46, -19412.49, 0.00, 0.00, 0.00, 0.00, 0.00, 0.00, 0.000, 0.000, 0.000, 11:27:39.730, 1561476459730
62, -41401.71, -19356.88, 0.00, 0.00, 0.00, 0.00, 0.00, 0.00, 0.000, 0.000, 0.000, 11:27:39.730, 1561476459730
63, -40304.57, -18290.14, 0.00, 0.00, 0.00, 0.00, 0.00, 0.00, 0.000, 0.000, 0.000, 11:27:39.730, 1561476459730
64, -40220.64, -18203.84, 0.00, 0.00, 0.00, 0.00, 0.00, 0.00, 0.000, 0.000, 0.000, 11:27:39.730, 1561476459730
65, -41307.00, -19258.42, 0.00, 0.00, 0.00, 0.00, 0.00, 0.00, 0.000, 0.000, 0.000, 11:27:39.730, 1561476459730
66, -41558.42, -19497.98, 0.00, 0.00, 0.00, 0.00, 0.00, 0.00, 0.068, -0.036, 1.028, 11:27:39.730, 1561476459730
67, -40522.84, -18488.83, 0.00, 0.00, 0.00, 0.00, 0.00, 0.00, 0.000, 0.000, 0.000, 11:27:39.730, 1561476459730
68, -40122.18, -18106.16, 0.00, 0.00, 0.00, 0.00, 0.00, 0.00, 0.000, 0.000, 0.000, 11:27:39.730, 1561476459730
69, -41124.21, -19073.64, 0.00, 0.00, 0.00, 0.00, 0.00, 0.00, 0.000, 0.000, 0.000, 11:27:39.731, 1561476459731
70, -41651.71, -19587.97, 0.00, 0.00, 0.00, 0.00, 0.00, 0.00, 0.000, 0.000, 0.000, 11:27:39.731, 1561476459731
71, -40715.89, -18685.61, 0.00, 0.00, 0.00, 0.00, 0.00, 0.00, 0.000, 0.000, 0.000, 11:27:39.732, 1561476459732
72, -40075.76, -18062.27, 0.00, 0.00, 0.00, 0.00, 0.00, 0.00, 0.000, 0.000, 0.000, 11:27:39.732, 1561476459732
73, -40939.86, -18896.77, 0.00, 0.00, 0.00, 0.00, 0.00, 0.00, 0.000, 0.000, 0.000, 11:27:39.732, 1561476459732
74, -41689.33, -19625.93, 0.00, 0.00, 0.00, 0.00, 0.00, 0.00, 0.000, 0.000, 0.000, 11:27:39.732, 1561476459732
75, -40906.86, -18867.08, 0.00, 0.00, 0.00, 0.00, 0.00, 0.00, 0.000, 0.000, 0.000, 11:27:39.732, 1561476459732
76, -40049.79, -18030.84, 0.00, 0.00, 0.00, 0.00, 0.00, 0.00, 0.068, -0.040, 1.030, 11:27:39.733, 1561476459733
77, -40728.27, -18684.58, 0.00, 0.00, 0.00, 0.00, 0.00, 0.00, 0.000, 0.000, 0.000, 11:27:39.733, 1561476459733
78, -41670.89, -19598.77, 0.00, 0.00, 0.00, 0.00, 0.00, 0.00, 0.000, 0.000, 0.000, 11:27:39.733, 1561476459733
79, -41101.77, -19050.70, 0.00, 0.00, 0.00, 0.00, 0.00, 0.00, 0.000, 0.000, 0.000, 11:27:39.733, 1561476459733
80, -40089.80, -18072.66, 0.00, 0.00, 0.00, 0.00, 0.00, 0.00, 0.000, 0.000, 0.000, 11:27:39.734, 1561476459734
81, -40536.09, -18501.68, 0.00, 0.00, 0.00, 0.00, 0.00, 0.00, 0.000, 0.000, 0.000, 11:27:39.735, 1561476459735
82, -41585.33, -19520.43, 0.00, 0.00, 0.00, 0.00, 0.00, 0.00, 0.000, 0.000, 0.000, 11:27:39.735, 1561476459735
83, -41269.84, -19214.19, 0.00, 0.00, 0.00, 0.00, 0.00, 0.00, 0.000, 0.000, 0.000, 11:27:39.735, 1561476459735
84, -40189.93, -18165.35, 0.00, 0.00, 0.00, 0.00, 0.00, 0.00, 0.000, 0.000, 0.000, 11:27:39.735, 1561476459735
85, -40369.84, -18337.53, 0.00, 0.00, 0.00, 0.00, 0.00, 0.00, 0.000, 0.000, 0.000, 11:27:39.735, 1561476459735
86, -41462.37, -19399.55, 0.00, 0.00, 0.00, 0.00, 0.00, 0.00, 0.072, -0.044, 1.038, 11:27:39.735, 1561476459735
87, -41423.10, -19362.47, 0.00, 0.00, 0.00, 0.00, 0.00, 0.00, 0.000, 0.000, 0.000, 11:27:39.735, 1561476459735
88, -40323.13, -18295.91, 0.00, 0.00, 0.00, 0.00, 0.00, 0.00, 0.000, 0.000, 0.000, 11:27:39.735, 1561476459735
89, -40200.77, -18180.66, 0.00, 0.00, 0.00, 0.00, 0.00, 0.00, 0.000, 0.000, 0.000, 11:27:39.735, 1561476459735
90, -41288.05, -19235.17, 0.00, 0.00, 0.00, 0.00, 0.00, 0.00, 0.000, 0.000, 0.000, 11:27:40.198, 1561476460198
91, -41526.79, -19468.79, 0.00, 0.00, 0.00, 0.00, 0.00, 0.00, 0.000, 0.000, 0.000, 11:27:40.198, 1561476460198
92, -40455.58, -18431.83, 0.00, 0.00, 0.00, 0.00, 0.00, 0.00, 0.000, 0.000, 0.000, 11:27:40.198, 1561476460198
93, -40027.70, -18016.20, 0.00, 0.00, 0.00, 0.00, 0.00, 0.00, 0.000, 0.000, 0.000, 11:27:40.198, 1561476460198
94, -40996.70, -18951.46, 0.00, 0.00, 0.00, 0.00, 0.00, 0.00, 0.000, 0.000, 0.000, 11:27:40.198, 1561476460198
95, -41573.26, -19513.50, 0.00, 0.00, 0.00, 0.00, 0.00, 0.00, 0.000, 0.000, 0.000, 11:27:40.199, 1561476460199
96, -40686.66, -18655.37, 0.00, 0.00, 0.00, 0.00, 0.00, 0.00, 0.000, 0.000, 0.000, 11:27:40.199, 1561476460199
97, -40065.66, -18047.33, 0.00, 0.00, 0.00, 0.00, 0.00, 0.00, 0.074, -0.040, 1.036, 11:27:40.199, 1561476460199
98, -40940.88, -18894.24, 0.00, 0.00, 0.00, 0.00, 0.00, 0.00, 0.000, 0.000, 0.000, 11:27:40.199, 1561476460199
99, -41735.71, -19665.15, 0.00, 0.00, 0.00, 0.00, 0.00, 0.00, 0.000, 0.000, 0.000, 11:27:40.199, 1561476460199
100, -40954.65, -18908.77, 0.00, 0.00, 0.00, 0.00, 0.00, 0.00, 0.000, 0.000, 0.000, 11:27:40.199, 1561476460199
101, -40069.01, -18047.60, 0.00, 0.00, 0.00, 0.00, 0.00, 0.00, 0.000, 0.000, 0.000, 11:27:40.199, 1561476460199
102, -40711.96, -18668.45, 0.00, 0.00, 0.00, 0.00, 0.00, 0.00, 0.000, 0.000, 0.000, 11:27:40.199, 1561476460199
103, -41647.18, -19579.08, 0.00, 0.00, 0.00, 0.00, 0.00, 0.00, 0.000, 0.000, 0.000, 11:27:40.199, 1561476460199
104, -41095.29, -19047.31, 0.00, 0.00, 0.00, 0.00, 0.00, 0.00, 0.000, 0.000, 0.000, 11:27:40.199, 1561476460199
105, -40098.85, -18082.22, 0.00, 0.00, 0.00, 0.00, 0.00, 0.00, 0.000, 0.000, 0.000, 11:27:40.199, 1561476460199
106, -40525.12, -18496.20, 0.00, 0.00, 0.00, 0.00, 0.00, 0.00, 0.000, 0.000, 0.000, 11:27:40.199, 1561476460199
107, -41576.81, -19511.20, 0.00, 0.00, 0.00, 0.00, 0.00, 0.00, 0.074, -0.040, 1.034, 11:27:40.199, 1561476460199
108, -41280.43, -19225.16, 0.00, 0.00, 0.00, 0.00, 0.00, 0.00, 0.000, 0.000, 0.000, 11:27:40.199, 1561476460199
109, -40189.04, -18164.68, 0.00, 0.00, 0.00, 0.00, 0.00, 0.00, 0.000, 0.000, 0.000, 11:27:40.199, 1561476460199
110, -40343.42, -18312.20, 0.00, 0.00, 0.00, 0.00, 0.00, 0.00, 0.000, 0.000, 0.000, 11:27:40.199, 1561476460199
111, -41427.48, -19363.49, 0.00, 0.00, 0.00, 0.00, 0.00, 0.00, 0.000, 0.000, 0.000, 11:27:40.199, 1561476460199
112, -41408.33, -19346.31, 0.00, 0.00, 0.00, 0.00, 0.00, 0.00, 0.000, 0.000, 0.000, 11:27:40.199, 1561476460199
113, -40320.24, -18291.55, 0.00, 0.00, 0.00, 0.00, 0.00, 0.00, 0.000, 0.000, 0.000, 11:27:40.199, 1561476460199
114, -40184.66, -18160.79, 0.00, 0.00, 0.00, 0.00, 0.00, 0.00, 0.000, 0.000, 0.000, 11:27:40.199, 1561476460199
115, -41264.87, -19210.45, 0.00, 0.00, 0.00, 0.00, 0.00, 0.00, 0.000, 0.000, 0.000, 11:27:40.199, 1561476460199
116, -41539.13, -19474.94, 0.00, 0.00, 0.00, 0.00, 0.00, 0.00, 0.000, 0.000, 0.000, 11:27:40.199, 1561476460199
117, -40508.11, -18469.07, 0.00, 0.00, 0.00, 0.00, 0.00, 0.00, 0.078, -0.044, 1.030, 11:27:40.199, 1561476460199
118, -40106.88, -18075.12, 0.00, 0.00, 0.00, 0.00, 0.00, 0.00, 0.000, 0.000, 0.000, 11:27:40.199, 1561476460199
119, -41081.84, -19027.35, 0.00, 0.00, 0.00, 0.00, 0.00, 0.00, 0.000, 0.000, 0.000, 11:27:40.199, 1561476460199
120, -41621.67, -19552.70, 0.00, 0.00, 0.00, 0.00, 0.00, 0.00, 0.000, 0.000, 0.000, 11:27:40.199, 1561476460199
121, -40707.71, -18669.92, 0.00, 0.00, 0.00, 0.00, 0.00, 0.00, 0.000, 0.000, 0.000, 11:27:40.200, 1561476460200
122, -40047.62, -18029.70, 0.00, 0.00, 0.00, 0.00, 0.00, 0.00, 0.000, 0.000, 0.000, 11:27:40.200, 1561476460200
123, -40870.39, -18825.85, 0.00, 0.00, 0.00, 0.00, 0.00, 0.00, 0.000, 0.000, 0.000, 11:27:40.200, 1561476460200
124, -41616.89, -19547.85, 0.00, 0.00, 0.00, 0.00, 0.00, 0.00, 0.000, 0.000, 0.000, 11:27:40.200, 1561476460200
125, -40879.75, -18835.17, 0.00, 0.00, 0.00, 0.00, 0.00, 0.00, 0.000, 0.000, 0.000, 11:27:40.200, 1561476460200
126, -40054.41, -18035.76, 0.00, 0.00, 0.00, 0.00, 0.00, 0.00, 0.000, 0.000, 0.000, 11:27:40.200, 1561476460200
127, -40723.13, -18679.93, 0.00, 0.00, 0.00, 0.00, 0.00, 0.00, 0.078, -0.036, 1.036, 11:27:40.200, 1561476460200
128, -41643.00, -19567.03, 0.00, 0.00, 0.00, 0.00, 0.00, 0.00, 0.000, 0.000, 0.000, 11:27:40.200, 1561476460200
129, -41086.44, -19032.96, 0.00, 0.00, 0.00, 0.00, 0.00, 0.00, 0.000, 0.000, 0.000, 11:27:40.200, 1561476460200
130, -40090.42, -18070.54, 0.00, 0.00, 0.00, 0.00, 0.00, 0.00, 0.000, 0.000, 0.000, 11:27:40.200, 1561476460200
131, -40500.11, -18462.34, 0.00, 0.00, 0.00, 0.00, 0.00, 0.00, 0.000, 0.000, 0.000, 11:27:40.200, 1561476460200
132, -41523.95, -19453.93, 0.00, 0.00, 0.00, 0.00, 0.00, 0.00, 0.000, 0.000, 0.000, 11:27:40.200, 1561476460200
133, -41240.26, -19185.20, 0.00, 0.00, 0.00, 0.00, 0.00, 0.00, 0.000, 0.000, 0.000, 11:27:40.200, 1561476460200
134, -40196.77, -18175.63, 0.00, 0.00, 0.00, 0.00, 0.00, 0.00, 0.000, 0.000, 0.000, 11:27:40.200, 1561476460200
135, -40348.45, -18321.77, 0.00, 0.00, 0.00, 0.00, 0.00, 0.00, 0.000, 0.000, 0.000, 11:27:40.200, 1561476460200
136, -41405.98, -19344.96, 0.00, 0.00, 0.00, 0.00, 0.00, 0.00, 0.000, 0.000, 0.000, 11:27:40.200, 1561476460200
137, -41412.64, -19346.17, 0.00, 0.00, 0.00, 0.00, 0.00, 0.00, 0.072, -0.038, 1.030, 11:27:40.200, 1561476460200
138, -40344.70, -18310.19, 0.00, 0.00, 0.00, 0.00, 0.00, 0.00, 0.000, 0.000, 0.000, 11:27:40.201, 1561476460201
139, -40186.91, -18154.76, 0.00, 0.00, 0.00, 0.00, 0.00, 0.00, 0.000, 0.000, 0.000, 11:27:40.201, 1561476460201
140, -41233.98, -19170.55, 0.00, 0.00, 0.00, 0.00, 0.00, 0.00, 0.000, 0.000, 0.000, 11:27:40.201, 1561476460201
141, -41510.56, -19441.37, 0.00, 0.00, 0.00, 0.00, 0.00, 0.00, 0.000, 0.000, 0.000, 11:27:40.201, 1561476460201
142, -40496.06, -18462.16, 0.00, 0.00, 0.00, 0.00, 0.00, 0.00, 0.000, 0.000, 0.000, 11:27:40.201, 1561476460201
143, -40070.66, -18051.20, 0.00, 0.00, 0.00, 0.00, 0.00, 0.00, 0.000, 0.000, 0.000, 11:27:40.201, 1561476460201
144, -41026.56, -18980.34, 0.00, 0.00, 0.00, 0.00, 0.00, 0.00, 0.000, 0.000, 0.000, 11:27:40.201, 1561476460201
145, -41578.73, -19511.66, 0.00, 0.00, 0.00, 0.00, 0.00, 0.00, 0.000, 0.000, 0.000, 11:27:40.201, 1561476460201
146, -40685.25, -18644.30, 0.00, 0.00, 0.00, 0.00, 0.00, 0.00, 0.000, 0.000, 0.000, 11:27:40.201, 1561476460201
147, -40021.60, -18001.96, 0.00, 0.00, 0.00, 0.00, 0.00, 0.00, 0.000, 0.000, 0.000, 11:27:40.201, 1561476460201
148, -40845.22, -18797.46, 0.00, 0.00, 0.00, 0.00, 0.00, 0.00, 0.092, -0.026, 1.046, 11:27:40.201, 1561476460201
149, -41617.07, -19548.30, 0.00, 0.00, 0.00, 0.00, 0.00, 0.00, 0.000, 0.000, 0.000, 11:27:40.201, 1561476460201
150, -40872.67, -18827.50, 0.00, 0.00, 0.00, 0.00, 0.00, 0.00, 0.000, 0.000, 0.000, 11:27:40.201, 1561476460201
151, -40002.00, -17983.01, 0.00, 0.00, 0.00, 0.00, 0.00, 0.00, 0.000, 0.000, 0.000, 11:27:40.201, 1561476460201
152, -40609.99, -18573.09, 0.00, 0.00, 0.00, 0.00, 0.00, 0.00, 0.000, 0.000, 0.000, 11:27:40.201, 1561476460201
153, -41539.73, -19476.42, 0.00, 0.00, 0.00, 0.00, 0.00, 0.00, 0.000, 0.000, 0.000, 11:27:40.202, 1561476460202
154, -41039.01, -18993.19, 0.00, 0.00, 0.00, 0.00, 0.00, 0.00, 0.000, 0.000, 0.000, 11:27:40.202, 1561476460202
155, -40063.76, -18045.77, 0.00, 0.00, 0.00, 0.00, 0.00, 0.00, 0.000, 0.000, 0.000, 11:27:40.202, 1561476460202
156, -40461.62, -18427.18, 0.00, 0.00, 0.00, 0.00, 0.00, 0.00, 0.000, 0.000, 0.000, 11:27:40.202, 1561476460202
157, -41481.19, -19415.71, 0.00, 0.00, 0.00, 0.00, 0.00, 0.00, 0.000, 0.000, 0.000, 11:27:40.202, 1561476460202
158, -41235.64, -19174.46, 0.00, 0.00, 0.00, 0.00, 0.00, 0.00, 0.084, -0.034, 1.046, 11:27:40.202, 1561476460202
159, -40202.79, -18171.79, 0.00, 0.00, 0.00, 0.00, 0.00, 0.00, 0.000, 0.000, 0.000, 11:27:40.202, 1561476460202
160, -40342.91, -18313.86, 0.00, 0.00, 0.00, 0.00, 0.00, 0.00, 0.000, 0.000, 0.000, 11:27:40.202, 1561476460202
161, -41417.54, -19351.07, 0.00, 0.00, 0.00, 0.00, 0.00, 0.00, 0.000, 0.000, 0.000, 11:27:40.202, 1561476460202
162, -41417.47, -19348.34, 0.00, 0.00, 0.00, 0.00, 0.00, 0.00, 0.000, 0.000, 0.000, 11:27:40.202, 1561476460202
163, -40337.77, -18302.30, 0.00, 0.00, 0.00, 0.00, 0.00, 0.00, 0.000, 0.000, 0.000, 11:27:40.202, 1561476460202
164, -40172.12, -18142.44, 0.00, 0.00, 0.00, 0.00, 0.00, 0.00, 0.000, 0.000, 0.000, 11:27:40.202, 1561476460202
165, -41213.24, -19154.30, 0.00, 0.00, 0.00, 0.00, 0.00, 0.00, 0.000, 0.000, 0.000, 11:27:40.202, 1561476460202
166, -41492.75, -19426.50, 0.00, 0.00, 0.00, 0.00, 0.00, 0.00, 0.000, 0.000, 0.000, 11:27:40.202, 1561476460202
167, -40492.93, -18460.62, 0.00, 0.00, 0.00, 0.00, 0.00, 0.00, 0.000, 0.000, 0.000, 11:27:40.202, 1561476460202
168, -40065.37, -18038.24, 0.00, 0.00, 0.00, 0.00, 0.00, 0.00, 0.084, -0.038, 1.032, 11:27:40.203, 1561476460203
169, -41016.28, -18965.61, 0.00, 0.00, 0.00, 0.00, 0.00, 0.00, 0.000, 0.000, 0.000, 11:27:40.203, 1561476460203
170, -41572.01, -19506.01, 0.00, 0.00, 0.00, 0.00, 0.00, 0.00, 0.000, 0.000, 0.000, 11:27:40.203, 1561476460203
171, -40686.54, -18646.47, 0.00, 0.00, 0.00, 0.00, 0.00, 0.00, 0.000, 0.000, 0.000, 11:27:40.203, 1561476460203
172, -40009.15, -17986.36, 0.00, 0.00, 0.00, 0.00, 0.00, 0.00, 0.000, 0.000, 0.000, 11:27:40.203, 1561476460203
173, -40818.89, -18772.98, 0.00, 0.00, 0.00, 0.00, 0.00, 0.00, 0.000, 0.000, 0.000, 11:27:40.203, 1561476460203
174, -41596.68, -19525.72, 0.00, 0.00, 0.00, 0.00, 0.00, 0.00, 0.000, 0.000, 0.000, 11:27:40.203, 1561476460203
175, -40870.48, -18822.63, 0.00, 0.00, 0.00, 0.00, 0.00, 0.00, 0.000, 0.000, 0.000, 11:27:40.203, 1561476460203
176, -39989.06, -17971.49, 0.00, 0.00, 0.00, 0.00, 0.00, 0.00, 0.000, 0.000, 0.000, 11:27:40.203, 1561476460203
177, -40600.98, -18562.74, 0.00, 0.00, 0.00, 0.00, 0.00, 0.00, 0.000, 0.000, 0.000, 11:27:40.203, 1561476460203
178, -41527.26, -19463.03, 0.00, 0.00, 0.00, 0.00, 0.00, 0.00, 0.078, -0.042, 1.024, 11:27:40.203, 1561476460203
179, -41038.96, -18990.47, 0.00, 0.00, 0.00, 0.00, 0.00, 0.00, 0.000, 0.000, 0.000, 11:27:40.203, 1561476460203
180, -40067.64, -18048.45, 0.00, 0.00, 0.00, 0.00, 0.00, 0.00, 0.000, 0.000, 0.000, 11:27:40.204, 1561476460204
181, -40442.75, -18413.86, 0.00, 0.00, 0.00, 0.00, 0.00, 0.00, 0.000, 0.000, 0.000, 11:27:40.204, 1561476460204
182, -41492.35, -19424.96, 0.00, 0.00, 0.00, 0.00, 0.00, 0.00, 0.000, 0.000, 0.000, 11:27:40.204, 1561476460204
183, -41256.85, -19197.96, 0.00, 0.00, 0.00, 0.00, 0.00, 0.00, 0.000, 0.000, 0.000, 11:27:40.204, 1561476460204
184, -40193.91, -18171.61, 0.00, 0.00, 0.00, 0.00, 0.00, 0.00, 0.000, 0.000, 0.000, 11:27:40.204, 1561476460204
185, -40299.21, -18275.14, 0.00, 0.00, 0.00, 0.00, 0.00, 0.00, 0.000, 0.000, 0.000, 11:27:40.204, 1561476460204
186, -41365.72, -19305.80, 0.00, 0.00, 0.00, 0.00, 0.00, 0.00, 0.000, 0.000, 0.000, 11:27:40.204, 1561476460204
187, -41387.32, -19322.95, 0.00, 0.00, 0.00, 0.00, 0.00, 0.00, 0.000, 0.000, 0.000, 11:27:40.204, 1561476460204
188, -40327.93, -18291.46, 0.00, 0.00, 0.00, 0.00, 0.00, 0.00, 0.082, -0.038, 1.018, 11:27:40.204, 1561476460204
189, -40157.57, -18127.98, 0.00, 0.00, 0.00, 0.00, 0.00, 0.00, 0.000, 0.000, 0.000, 11:27:40.204, 1561476460204
190, -41201.02, -19144.04, 0.00, 0.00, 0.00, 0.00, 0.00, 0.00, 0.000, 0.000, 0.000, 11:27:40.204, 1561476460204
191, -41496.84, -19433.08, 0.00, 0.00, 0.00, 0.00, 0.00, 0.00, 0.000, 0.000, 0.000, 11:27:40.204, 1561476460204
192, -40496.06, -18459.84, 0.00, 0.00, 0.00, 0.00, 0.00, 0.00, 0.000, 0.000, 0.000, 11:27:40.204, 1561476460204
193, -40052.00, -18029.74, 0.00, 0.00, 0.00, 0.00, 0.00, 0.00, 0.000, 0.000, 0.000, 11:27:40.204, 1561476460204
194, -40979.64, -18927.21, 0.00, 0.00, 0.00, 0.00, 0.00, 0.00, 0.000, 0.000, 0.000, 11:27:40.204, 1561476460204
195, -41545.27, -19474.16, 0.00, 0.00, 0.00, 0.00, 0.00, 0.00, 0.000, 0.000, 0.000, 11:27:40.205, 1561476460205
196, -40666.11, -18623.38, 0.00, 0.00, 0.00, 0.00, 0.00, 0.00, 0.000, 0.000, 0.000, 11:27:40.205, 1561476460205
197, -39984.86, -17957.53, 0.00, 0.00, 0.00, 0.00, 0.00, 0.00, 0.000, 0.000, 0.000, 11:27:40.205, 1561476460205
198, -40800.36, -18745.92, 0.00, 0.00, 0.00, 0.00, 0.00, 0.00, 0.000, 0.000, 0.000, 11:27:40.205, 1561476460205
199, -41586.13, -19511.48, 0.00, 0.00, 0.00, 0.00, 0.00, 0.00, 0.058, -0.032, 1.034, 11:27:40.205, 1561476460205
200, -40882.77, -18828.44, 0.00, 0.00, 0.00, 0.00, 0.00, 0.00, 0.000, 0.000, 0.000, 11:27:40.205, 1561476460205
201, -40029.27, -17995.21, 0.00, 0.00, 0.00, 0.00, 0.00, 0.00, 0.000, 0.000, 0.000, 11:27:40.205, 1561476460205
202, -40631.25, -18586.66, 0.00, 0.00, 0.00, 0.00, 0.00, 0.00, 0.000, 0.000, 0.000, 11:27:40.205, 1561476460205
203, -41554.37, -19488.75, 0.00, 0.00, 0.00, 0.00, 0.00, 0.00, 0.000, 0.000, 0.000, 11:27:40.205, 1561476460205
204, -41068.20, -19013.76, 0.00, 0.00, 0.00, 0.00, 0.00, 0.00, 0.000, 0.000, 0.000, 11:27:40.205, 1561476460205
205, -40079.40, -18049.03, 0.00, 0.00, 0.00, 0.00, 0.00, 0.00, 0.000, 0.000, 0.000, 11:27:40.205, 1561476460205
206, -40455.27, -18412.14, 0.00, 0.00, 0.00, 0.00, 0.00, 0.00, 0.000, 0.000, 0.000, 11:27:40.205, 1561476460205
207, -41485.75, -19409.72, 0.00, 0.00, 0.00, 0.00, 0.00, 0.00, 0.000, 0.000, 0.000, 11:27:40.205, 1561476460205
208, -41246.88, -19182.63, 0.00, 0.00, 0.00, 0.00, 0.00, 0.00, 0.000, 0.000, 0.000, 11:27:40.205, 1561476460205
209, -40176.61, -18146.02, 0.00, 0.00, 0.00, 0.00, 0.00, 0.00, 0.066, -0.036, 1.034, 11:27:40.205, 1561476460205
210, -40269.82, -18235.76, 0.00, 0.00, 0.00, 0.00, 0.00, 0.00, 0.000, 0.000, 0.000, 11:27:40.678, 1561476460678
211, -41317.22, -19249.72, 0.00, 0.00, 0.00, 0.00, 0.00, 0.00, 0.000, 0.000, 0.000, 11:27:40.678, 1561476460678
212, -41348.07, -19281.40, 0.00, 0.00, 0.00, 0.00, 0.00, 0.00, 0.000, 0.000, 0.000, 11:27:40.678, 1561476460678
213, -40335.82, -18300.24, 0.00, 0.00, 0.00, 0.00, 0.00, 0.00, 0.000, 0.000, 0.000, 11:27:40.678, 1561476460678
214, -40177.24, -18143.71, 0.00, 0.00, 0.00, 0.00, 0.00, 0.00, 0.000, 0.000, 0.000, 11:27:40.678, 1561476460678
215, -41174.19, -19110.61, 0.00, 0.00, 0.00, 0.00, 0.00, 0.00, 0.000, 0.000, 0.000, 11:27:40.678, 1561476460678
216, -41477.17, -19407.51, 0.00, 0.00, 0.00, 0.00, 0.00, 0.00, 0.000, 0.000, 0.000, 11:27:40.679, 1561476460679
217, -40499.44, -18460.64, 0.00, 0.00, 0.00, 0.00, 0.00, 0.00, 0.000, 0.000, 0.000, 11:27:40.679, 1561476460679
218, -40052.80, -18029.32, 0.00, 0.00, 0.00, 0.00, 0.00, 0.00, 0.000, 0.000, 0.000, 11:27:40.679, 1561476460679
219, -40981.61, -18924.95, 0.00, 0.00, 0.00, 0.00, 0.00, 0.00, 0.084, -0.056, 1.046, 11:27:40.679, 1561476460679
220, -41563.05, -19482.94, 0.00, 0.00, 0.00, 0.00, 0.00, 0.00, 0.000, 0.000, 0.000, 11:27:40.679, 1561476460679
221, -40717.93, -18670.95, 0.00, 0.00, 0.00, 0.00, 0.00, 0.00, 0.000, 0.000, 0.000, 11:27:40.679, 1561476460679
222, -40029.36, -18005.80, 0.00, 0.00, 0.00, 0.00, 0.00, 0.00, 0.000, 0.000, 0.000, 11:27:40.679, 1561476460679
223, -40806.82, -18763.95, 0.00, 0.00, 0.00, 0.00, 0.00, 0.00, 0.000, 0.000, 0.000, 11:27:40.679, 1561476460679
224, -41593.91, -19530.44, 0.00, 0.00, 0.00, 0.00, 0.00, 0.00, 0.000, 0.000, 0.000, 11:27:40.679, 1561476460679
225, -40913.53, -18869.10, 0.00, 0.00, 0.00, 0.00, 0.00, 0.00, 0.000, 0.000, 0.000, 11:27:40.679, 1561476460679
226, -40053.90, -18031.04, 0.00, 0.00, 0.00, 0.00, 0.00, 0.00, 0.000, 0.000, 0.000, 11:27:40.680, 1561476460680
227, -40657.02, -18613.50, 0.00, 0.00, 0.00, 0.00, 0.00, 0.00, 0.000, 0.000, 0.000, 11:27:40.680, 1561476460680
228, -41592.73, -19521.19, 0.00, 0.00, 0.00, 0.00, 0.00, 0.00, 0.000, 0.000, 0.000, 11:27:40.680, 1561476460680
229, -41123.48, -19065.75, 0.00, 0.00, 0.00, 0.00, 0.00, 0.00, 0.104, -0.046, 1.014, 11:27:40.680, 1561476460680
230, -40128.62, -18101.60, 0.00, 0.00, 0.00, 0.00, 0.00, 0.00, 0.000, 0.000, 0.000, 11:27:40.680, 1561476460680
231, -40481.82, -18443.36, 0.00, 0.00, 0.00, 0.00, 0.00, 0.00, 0.000, 0.000, 0.000, 11:27:40.680, 1561476460680
232, -41517.16, -19444.88, 0.00, 0.00, 0.00, 0.00, 0.00, 0.00, 0.000, 0.000, 0.000, 11:27:40.680, 1561476460680
233, -41304.95, -19239.35, 0.00, 0.00, 0.00, 0.00, 0.00, 0.00, 0.000, 0.000, 0.000, 11:27:40.680, 1561476460680
234, -40250.53, -18217.88, 0.00, 0.00, 0.00, 0.00, 0.00, 0.00, 0.000, 0.000, 0.000, 11:27:40.680, 1561476460680
235, -40320.89, -18287.28, 0.00, 0.00, 0.00, 0.00, 0.00, 0.00, 0.000, 0.000, 0.000, 11:27:40.681, 1561476460681
236, -41377.84, -19305.47, 0.00, 0.00, 0.00, 0.00, 0.00, 0.00, 0.000, 0.000, 0.000, 11:27:40.681, 1561476460681
237, -41442.75, -19369.57, 0.00, 0.00, 0.00, 0.00, 0.00, 0.00, 0.000, 0.000, 0.000, 11:27:40.681, 1561476460681
238, -40418.48, -18380.04, 0.00, 0.00, 0.00, 0.00, 0.00, 0.00, 0.000, 0.000, 0.000, 11:27:40.681, 1561476460681
239, -40235.15, -18201.92, 0.00, 0.00, 0.00, 0.00, 0.00, 0.00, 0.076, -0.038, 1.032, 11:27:40.681, 1561476460681
240, -41258.66, -19192.23, 0.00, 0.00, 0.00, 0.00, 0.00, 0.00, 0.000, 0.000, 0.000, 11:27:40.681, 1561476460681
241, -41590.94, -19512.51, 0.00, 0.00, 0.00, 0.00, 0.00, 0.00, 0.000, 0.000, 0.000, 11:27:40.681, 1561476460681
242, -40603.46, -18556.02, 0.00, 0.00, 0.00, 0.00, 0.00, 0.00, 0.000, 0.000, 0.000, 11:27:40.681, 1561476460681
243, -40132.33, -18102.07, 0.00, 0.00, 0.00, 0.00, 0.00, 0.00, 0.000, 0.000, 0.000, 11:27:40.681, 1561476460681
244, -41041.02, -18982.67, 0.00, 0.00, 0.00, 0.00, 0.00, 0.00, 0.000, 0.000, 0.000, 11:27:40.681, 1561476460681
245, -41623.64, -19547.90, 0.00, 0.00, 0.00, 0.00, 0.00, 0.00, 0.000, 0.000, 0.000, 11:27:40.681, 1561476460681
246, -40759.23, -18711.00, 0.00, 0.00, 0.00, 0.00, 0.00, 0.00, 0.000, 0.000, 0.000, 11:27:40.681, 1561476460681
247, -40079.45, -18048.18, 0.00, 0.00, 0.00, 0.00, 0.00, 0.00, 0.000, 0.000, 0.000, 11:27:40.681, 1561476460681
248, -40848.84, -18788.14, 0.00, 0.00, 0.00, 0.00, 0.00, 0.00, 0.000, 0.000, 0.000, 11:27:40.682, 1561476460682
249, -41640.18, -19560.93, 0.00, 0.00, 0.00, 0.00, 0.00, 0.00, 0.058, -0.038, 1.018, 11:27:40.682, 1561476460682
250, -40967.37, -18917.26, 0.00, 0.00, 0.00, 0.00, 0.00, 0.00, 0.000, 0.000, 0.000, 11:27:40.682, 1561476460682
251, -40074.64, -18055.43, 0.00, 0.00, 0.00, 0.00, 0.00, 0.00, 0.000, 0.000, 0.000, 11:27:40.682, 1561476460682
252, -40656.86, -18619.14, 0.00, 0.00, 0.00, 0.00, 0.00, 0.00, 0.000, 0.000, 0.000, 11:27:40.682, 1561476460682
253, -41604.89, -19538.49, 0.00, 0.00, 0.00, 0.00, 0.00, 0.00, 0.000, 0.000, 0.000, 11:27:40.682, 1561476460682
254, -41144.17, -19088.30, 0.00, 0.00, 0.00, 0.00, 0.00, 0.00, 0.000, 0.000, 0.000, 11:27:40.682, 1561476460682
255, -40151.27, -18115.51, 0.00, 0.00, 0.00, 0.00, 0.00, 0.00, 0.000, 0.000, 0.000, 11:27:40.682, 1561476460682
0, -40494.74, -18448.17, 0.00, 0.00, 0.00, 0.00, 0.00, 0.00, 0.000, 0.000, 0.000, 11:27:40.682, 1561476460682
1, -41530.07, -19456.75, 0.00, 0.00, 0.00, 0.00, 0.00, 0.00, 0.000, 0.000, 0.000, 11:27:40.682, 1561476460682
2, -41328.80, -19260.97, 0.00, 0.00, 0.00, 0.00, 0.00, 0.00, 0.000, 0.000, 0.000, 11:27:40.682, 1561476460682
3, -40245.45, -18210.12, 0.00, 0.00, 0.00, 0.00, 0.00, 0.00, 0.000, 0.000, 0.000, 11:27:40.682, 1561476460682
4, -40298.92, -18258.96, 0.00, 0.00, 0.00, 0.00, 0.00, 0.00, 0.068, -0.042, 1.030, 11:27:40.682, 1561476460682
5, -41356.40, -19284.88, 0.00, 0.00, 0.00, 0.00, 0.00, 0.00, 0.000, 0.000, 0.000, 11:27:40.683, 1561476460683
6, -41432.89, -19360.16, 0.00, 0.00, 0.00, 0.00, 0.00, 0.00, 0.000, 0.000, 0.000, 11:27:40.683, 1561476460683
7, -40368.52, -18326.66, 0.00, 0.00, 0.00, 0.00, 0.00, 0.00, 0.000, 0.000, 0.000, 11:27:40.683, 1561476460683
8, -40132.42, -18094.21, 0.00, 0.00, 0.00, 0.00, 0.00, 0.00, 0.000, 0.000, 0.000, 11:27:40.683, 1561476460683
9, -41140.55, -19067.49, 0.00, 0.00, 0.00, 0.00, 0.00, 0.00, 0.000, 0.000, 0.000, 11:27:40.683, 1561476460683
10, -41543.13, -19452.46, 0.00, 0.00, 0.00, 0.00, 0.00, 0.00, 0.000, 0.000, 0.000, 11:27:40.683, 1561476460683
11, -40632.25, -18582.70, 0.00, 0.00, 0.00, 0.00, 0.00, 0.00, 0.000, 0.000, 0.000, 11:27:40.683, 1561476460683
12, -40202.00, -18170.20, 0.00, 0.00, 0.00, 0.00, 0.00, 0.00, 0.000, 0.000, 0.000, 11:27:40.683, 1561476460683
13, -41131.61, -19071.04, 0.00, 0.00, 0.00, 0.00, 0.00, 0.00, 0.000, 0.000, 0.000, 11:27:40.683, 1561476460683
14, -41718.34, -19640.68, 0.00, 0.00, 0.00, 0.00, 0.00, 0.00, 0.072, -0.042, 1.030, 11:27:40.683, 1561476460683
15, -40832.21, -18782.44, 0.00, 0.00, 0.00, 0.00, 0.00, 0.00, 0.000, 0.000, 0.000, 11:27:40.683, 1561476460683
16, -40077.66, -18052.97, 0.00, 0.00, 0.00, 0.00, 0.00, 0.00, 0.000, 0.000, 0.000, 11:27:40.683, 1561476460683
17, -40831.96, -18781.21, 0.00, 0.00, 0.00, 0.00, 0.00, 0.00, 0.000, 0.000, 0.000, 11:27:40.683, 1561476460683
18, -41658.04, -19579.43, 0.00, 0.00, 0.00, 0.00, 0.00, 0.00, 0.000, 0.000, 0.000, 11:27:40.683, 1561476460683
19, -40985.05, -18928.78, 0.00, 0.00, 0.00, 0.00, 0.00, 0.00, 0.000, 0.000, 0.000, 11:27:40.684, 1561476460684
20, -40089.57, -18058.69, 0.00, 0.00, 0.00, 0.00, 0.00, 0.00, 0.000, 0.000, 0.000, 11:27:40.684, 1561476460684
21, -40646.51, -18594.73, 0.00, 0.00, 0.00, 0.00, 0.00, 0.00, 0.000, 0.000, 0.000, 11:27:40.684, 1561476460684
22, -41590.61, -19512.89, 0.00, 0.00, 0.00, 0.00, 0.00, 0.00, 0.000, 0.000, 0.000, 11:27:40.684, 1561476460684
23, -41136.80, -19077.44, 0.00, 0.00, 0.00, 0.00, 0.00, 0.00, 0.000, 0.000, 0.000, 11:27:40.684, 1561476460684
24, -40144.34, -18115.22, 0.00, 0.00, 0.00, 0.00, 0.00, 0.00, 0.074, -0.038, 1.034, 11:27:40.684, 1561476460684
25, -40477.31, -18434.47, 0.00, 0.00, 0.00, 0.00, 0.00, 0.00, 0.000, 0.000, 0.000, 11:27:40.684, 1561476460684
26, -41496.41, -19424.16, 0.00, 0.00, 0.00, 0.00, 0.00, 0.00, 0.000, 0.000, 0.000, 11:27:40.684, 1561476460684
27, -41292.97, -19226.43, 0.00, 0.00, 0.00, 0.00, 0.00, 0.00, 0.000, 0.000, 0.000, 11:27:40.684, 1561476460684
28, -40251.29, -18211.69, 0.00, 0.00, 0.00, 0.00, 0.00, 0.00, 0.000, 0.000, 0.000, 11:27:40.684, 1561476460684
29, -40309.92, -18272.46, 0.00, 0.00, 0.00, 0.00, 0.00, 0.00, 0.000, 0.000, 0.000, 11:27:40.684, 1561476460684
30, -41384.70, -19315.97, 0.00, 0.00, 0.00, 0.00, 0.00, 0.00, 0.000, 0.000, 0.000, 11:27:40.684, 1561476460684
31, -41467.65, -19401.65, 0.00, 0.00, 0.00, 0.00, 0.00, 0.00, 0.000, 0.000, 0.000, 11:27:40.684, 1561476460684
32, -40428.96, -18396.51, 0.00, 0.00, 0.00, 0.00, 0.00, 0.00, 0.000, 0.000, 0.000, 11:27:40.685, 1561476460685
33, -40205.40, -18173.71, 0.00, 0.00, 0.00, 0.00, 0.00, 0.00, 0.000, 0.000, 0.000, 11:27:40.685, 1561476460685
34, -41219.27, -19153.68, 0.00, 0.00, 0.00, 0.00, 0.00, 0.00, 0.072, -0.042, 1.032, 11:27:40.685, 1561476460685
35, -41577.28, -19498.16, 0.00, 0.00, 0.00, 0.00, 0.00, 0.00, 0.000, 0.000, 0.000, 11:27:40.685, 1561476460685
36, -40603.95, -18553.49, 0.00, 0.00, 0.00, 0.00, 0.00, 0.00, 0.000, 0.000, 0.000, 11:27:40.685, 1561476460685
37, -40098.11, -18066.27, 0.00, 0.00, 0.00, 0.00, 0.00, 0.00, 0.000, 0.000, 0.000, 11:27:40.685, 1561476460685
38, -40997.23, -18940.55, 0.00, 0.00, 0.00, 0.00, 0.00, 0.00, 0.000, 0.000, 0.000, 11:27:40.685, 1561476460685
39, -41619.84, -19543.56, 0.00, 0.00, 0.00, 0.00, 0.00, 0.00, 0.000, 0.000, 0.000, 11:27:40.685, 1561476460685
40, -40772.29, -18724.93, 0.00, 0.00, 0.00, 0.00, 0.00, 0.00, 0.000, 0.000, 0.000, 11:27:40.685, 1561476460685
41, -40045.63, -18022.10, 0.00, 0.00, 0.00, 0.00, 0.00, 0.00, 0.000, 0.000, 0.000, 11:27:40.685, 1561476460685
42, -40807.38, -18763.19, 0.00, 0.00, 0.00, 0.00, 0.00, 0.00, 0.000, 0.000, 0.000, 11:27:40.685, 1561476460685
43, -41599.97, -19532.32, 0.00, 0.00, 0.00, 0.00, 0.00, 0.00, 0.000, 0.000, 0.000, 11:27:40.685, 1561476460685
44, -40931.88, -18881.63, 0.00, 0.00, 0.00, 0.00, 0.00, 0.00, 0.076, -0.034, 1.030, 11:27:40.685, 1561476460685
45, -40053.70, -18027.15, 0.00, 0.00, 0.00, 0.00, 0.00, 0.00, 0.000, 0.000, 0.000, 11:27:40.685, 1561476460685
46, -40625.43, -18571.01, 0.00, 0.00, 0.00, 0.00, 0.00, 0.00, 0.000, 0.000, 0.000, 11:27:40.685, 1561476460685
47, -41585.15, -19510.86, 0.00, 0.00, 0.00, 0.00, 0.00, 0.00, 0.000, 0.000, 0.000, 11:27:40.685, 1561476460685
48, -41152.38, -19087.94, 0.00, 0.00, 0.00, 0.00, 0.00, 0.00, 0.000, 0.000, 0.000, 11:27:40.685, 1561476460685
49, -40151.62, -18117.61, 0.00, 0.00, 0.00, 0.00, 0.00, 0.00, 0.000, 0.000, 0.000, 11:27:40.685, 1561476460685
50, -40444.45, -18400.04, 0.00, 0.00, 0.00, 0.00, 0.00, 0.00, 0.000, 0.000, 0.000, 11:27:40.685, 1561476460685
51, -41469.05, -19394.36, 0.00, 0.00, 0.00, 0.00, 0.00, 0.00, 0.000, 0.000, 0.000, 11:27:40.685, 1561476460685
52, -41298.49, -19226.34, 0.00, 0.00, 0.00, 0.00, 0.00, 0.00, 0.000, 0.000, 0.000, 11:27:40.685, 1561476460685
53, -40242.53, -18206.26, 0.00, 0.00, 0.00, 0.00, 0.00, 0.00, 0.000, 0.000, 0.000, 11:27:40.686, 1561476460686
54, -40288.95, -18250.71, 0.00, 0.00, 0.00, 0.00, 0.00, 0.00, 0.000, 0.000, 0.000, 11:27:40.686, 1561476460686
55, -41331.70, -19266.09, 0.00, 0.00, 0.00, 0.00, 0.00, 0.00, 0.080, -0.040, 1.030, 11:27:40.687, 1561476460687
56, -41397.51, -19330.53, 0.00, 0.00, 0.00, 0.00, 0.00, 0.00, 0.000, 0.000, 0.000, 11:27:40.687, 1561476460687
57, -40371.29, -18333.66, 0.00, 0.00, 0.00, 0.00, 0.00, 0.00, 0.000, 0.000, 0.000, 11:27:40.687, 1561476460687
58, -40164.95, -18132.09, 0.00, 0.00, 0.00, 0.00, 0.00, 0.00, 0.000, 0.000, 0.000, 11:27:40.687, 1561476460687
59, -41166.39, -19105.06, 0.00, 0.00, 0.00, 0.00, 0.00, 0.00, 0.000, 0.000, 0.000, 11:27:40.687, 1561476460687
60, -41536.27, -19461.57, 0.00, 0.00, 0.00, 0.00, 0.00, 0.00, 0.000, 0.000, 0.000, 11:27:40.687, 1561476460687
61, -40571.01, -18523.27, 0.00, 0.00, 0.00, 0.00, 0.00, 0.00, 0.000, 0.000, 0.000, 11:27:40.687, 1561476460687
62, -40076.05, -18043.29, 0.00, 0.00, 0.00, 0.00, 0.00, 0.00, 0.000, 0.000, 0.000, 11:27:40.688, 1561476460688
63, -40982.55, -18924.66, 0.00, 0.00, 0.00, 0.00, 0.00, 0.00, 0.000, 0.000, 0.000, 11:27:40.688, 1561476460688
64, -41584.86, -19511.91, 0.00, 0.00, 0.00, 0.00, 0.00, 0.00, 0.000, 0.000, 0.000, 11:27:40.688, 1561476460688
65, -40732.03, -18687.78, 0.00, 0.00, 0.00, 0.00, 0.00, 0.00, 0.074, -0.042, 1.030, 11:27:40.688, 1561476460688
66, -40012.46, -17986.65, 0.00, 0.00, 0.00, 0.00, 0.00, 0.00, 0.000, 0.000, 0.000, 11:27:40.688, 1561476460688
67, -40777.87, -18724.44, 0.00, 0.00, 0.00, 0.00, 0.00, 0.00, 0.000, 0.000, 0.000, 11:27:40.688, 1561476460688
68, -41618.72, -19539.09, 0.00, 0.00, 0.00, 0.00, 0.00, 0.00, 0.000, 0.000, 0.000, 11:27:40.688, 1561476460688
69, -40949.96, -18884.68, 0.00, 0.00, 0.00, 0.00, 0.00, 0.00, 0.000, 0.000, 0.000, 11:27:40.688, 1561476460688
70, -40043.84, -17997.22, 0.00, 0.00, 0.00, 0.00, 0.00, 0.00, 0.000, 0.000, 0.000, 11:27:40.688, 1561476460688
71, -40595.35, -18538.40, 0.00, 0.00, 0.00, 0.00, 0.00, 0.00, 0.000, 0.000, 0.000, 11:27:40.688, 1561476460688
72, -41539.78, -19458.96, 0.00, 0.00, 0.00, 0.00, 0.00, 0.00, 0.000, 0.000, 0.000, 11:27:40.688, 1561476460688
73, -41079.98, -19016.95, 0.00, 0.00, 0.00, 0.00, 0.00, 0.00, 0.000, 0.000, 0.000, 11:27:40.688, 1561476460688
74, -40051.24, -18020.60, 0.00, 0.00, 0.00, 0.00, 0.00, 0.00, 0.000, 0.000, 0.000, 11:27:41.160, 1561476461160
75, -40383.59, -18337.64, 0.00, 0.00, 0.00, 0.00, 0.00, 0.00, 0.072, -0.040, 1.028, 11:27:41.160, 1561476461160
76, -41456.29, -19380.01, 0.00, 0.00, 0.00, 0.00, 0.00, 0.00, 0.000, 0.000, 0.000, 11:27:41.160, 1561476461160
77, -41266.64, -19197.04, 0.00, 0.00, 0.00, 0.00, 0.00, 0.00, 0.000, 0.000, 0.000, 11:27:41.160, 1561476461160
78, -40186.36, -18147.36, 0.00, 0.00, 0.00, 0.00, 0.00, 0.00, 0.000, 0.000, 0.000, 11:27:41.160, 1561476461160
79, -40220.58, -18179.25, 0.00, 0.00, 0.00, 0.00, 0.00, 0.00, 0.000, 0.000, 0.000, 11:27:41.160, 1561476461160
80, -41268.63, -19197.53, 0.00, 0.00, 0.00, 0.00, 0.00, 0.00, 0.000, 0.000, 0.000, 11:27:41.160, 1561476461160
81, -41368.59, -19295.70, 0.00, 0.00, 0.00, 0.00, 0.00, 0.00, 0.000, 0.000, 0.000, 11:27:41.161, 1561476461161
82, -40316.33, -18276.30, 0.00, 0.00, 0.00, 0.00, 0.00, 0.00, 0.000, 0.000, 0.000, 11:27:41.161, 1561476461161
83, -40084.66, -18050.17, 0.00, 0.00, 0.00, 0.00, 0.00, 0.00, 0.000, 0.000, 0.000, 11:27:41.161, 1561476461161
84, -41121.98, -19054.21, 0.00, 0.00, 0.00, 0.00, 0.00, 0.00, 0.000, 0.000, 0.000, 11:27:41.161, 1561476461161
85, -41493.62, -19414.10, 0.00, 0.00, 0.00, 0.00, 0.00, 0.00, 0.074, -0.040, 1.034, 11:27:41.161, 1561476461161
86, -40519.62, -18468.22, 0.00, 0.00, 0.00, 0.00, 0.00, 0.00, 0.000, 0.000, 0.000, 11:27:41.161, 1561476461161
87, -40022.16, -17980.66, 0.00, 0.00, 0.00, 0.00, 0.00, 0.00, 0.000, 0.000, 0.000, 11:27:41.161, 1561476461161
88, -40921.26, -18856.49, 0.00, 0.00, 0.00, 0.00, 0.00, 0.00, 0.000, 0.000, 0.000, 11:27:41.161, 1561476461161
89, -41537.07, -19460.79, 0.00, 0.00, 0.00, 0.00, 0.00, 0.00, 0.000, 0.000, 0.000, 11:27:41.161, 1561476461161
90, -40685.85, -18638.07, 0.00, 0.00, 0.00, 0.00, 0.00, 0.00, 0.000, 0.000, 0.000, 11:27:41.161, 1561476461161
91, -39943.39, -17917.49, 0.00, 0.00, 0.00, 0.00, 0.00, 0.00, 0.000, 0.000, 0.000, 11:27:41.162, 1561476461162
92, -40710.26, -18659.06, 0.00, 0.00, 0.00, 0.00, 0.00, 0.00, 0.000, 0.000, 0.000, 11:27:41.162, 1561476461162
93, -41537.81, -19457.13, 0.00, 0.00, 0.00, 0.00, 0.00, 0.00, 0.000, 0.000, 0.000, 11:27:41.162, 1561476461162
94, -40881.07, -18817.46, 0.00, 0.00, 0.00, 0.00, 0.00, 0.00, 0.000, 0.000, 0.000, 11:27:41.162, 1561476461162
95, -39971.36, -17935.58, 0.00, 0.00, 0.00, 0.00, 0.00, 0.00, 0.074, -0.042, 1.034, 11:27:41.162, 1561476461162
96, -40518.26, -18468.17, 0.00, 0.00, 0.00, 0.00, 0.00, 0.00, 0.000, 0.000, 0.000, 11:27:41.162, 1561476461162
97, -41500.84, -19424.02, 0.00, 0.00, 0.00, 0.00, 0.00, 0.00, 0.000, 0.000, 0.000, 11:27:41.162, 1561476461162
98, -41062.57, -19001.42, 0.00, 0.00, 0.00, 0.00, 0.00, 0.00, 0.000, 0.000, 0.000, 11:27:41.162, 1561476461162
99, -40041.29, -18010.83, 0.00, 0.00, 0.00, 0.00, 0.00, 0.00, 0.000, 0.000, 0.000, 11:27:41.162, 1561476461162
100, -40346.93, -18302.32, 0.00, 0.00, 0.00, 0.00, 0.00, 0.00, 0.000, 0.000, 0.000, 11:27:41.162, 1561476461162
101, -41393.91, -19317.76, 0.00, 0.00, 0.00, 0.00, 0.00, 0.00, 0.000, 0.000, 0.000, 11:27:41.162, 1561476461162
102, -41219.86, -19147.76, 0.00, 0.00, 0.00, 0.00, 0.00, 0.00, 0.000, 0.000, 0.000, 11:27:41.163, 1561476461163
103, -40148.07, -18107.79, 0.00, 0.00, 0.00, 0.00, 0.00, 0.00, 0.000, 0.000, 0.000, 11:27:41.163, 1561476461163
104, -40185.29, -18143.96, 0.00, 0.00, 0.00, 0.00, 0.00, 0.00, 0.000, 0.000, 0.000, 11:27:41.163, 1561476461163
105, -41254.03, -19176.79, 0.00, 0.00, 0.00, 0.00, 0.00, 0.00, 0.074, -0.034, 1.036, 11:27:41.163, 1561476461163
106, -41356.25, -19279.99, 0.00, 0.00, 0.00, 0.00, 0.00, 0.00, 0.000, 0.000, 0.000, 11:27:41.163, 1561476461163
107, -40315.88, -18270.56, 0.00, 0.00, 0.00, 0.00, 0.00, 0.00, 0.000, 0.000, 0.000, 11:27:41.163, 1561476461163
108, -40064.59, -18025.77, 0.00, 0.00, 0.00, 0.00, 0.00, 0.00, 0.000, 0.000, 0.000, 11:27:41.163, 1561476461163
109, -41065.32, -18992.97, 0.00, 0.00, 0.00, 0.00, 0.00, 0.00, 0.000, 0.000, 0.000, 11:27:41.163, 1561476461163
110, -41449.12, -19366.42, 0.00, 0.00, 0.00, 0.00, 0.00, 0.00, 0.000, 0.000, 0.000, 11:27:41.163, 1561476461163
111, -40479.79, -18428.32, 0.00, 0.00, 0.00, 0.00, 0.00, 0.00, 0.000, 0.000, 0.000, 11:27:41.163, 1561476461163
112, -39956.80, -17918.66, 0.00, 0.00, 0.00, 0.00, 0.00, 0.00, 0.000, 0.000, 0.000, 11:27:41.163, 1561476461163
113, -40859.01, -18790.69, 0.00, 0.00, 0.00, 0.00, 0.00, 0.00, 0.000, 0.000, 0.000, 11:27:41.163, 1561476461163
114, -41493.71, -19410.68, 0.00, 0.00, 0.00, 0.00, 0.00, 0.00, 0.000, 0.000, 0.000, 11:27:41.163, 1561476461163
115, -40666.72, -18610.64, 0.00, 0.00, 0.00, 0.00, 0.00, 0.00, 0.000, 0.000, 0.000, 11:27:41.163, 1561476461163
116, -39931.14, -17895.12, 0.00, 0.00, 0.00, 0.00, 0.00, 0.00, 0.072, -0.040, 1.034, 11:27:41.163, 1561476461163
117, -40668.64, -18608.36, 0.00, 0.00, 0.00, 0.00, 0.00, 0.00, 0.000, 0.000, 0.000, 11:27:41.163, 1561476461163
118, -41519.97, -19436.85, 0.00, 0.00, 0.00, 0.00, 0.00, 0.00, 0.000, 0.000, 0.000, 11:27:41.163, 1561476461163
119, -40874.43, -18809.10, 0.00, 0.00, 0.00, 0.00, 0.00, 0.00, 0.000, 0.000, 0.000, 11:27:41.163, 1561476461163
120, -39906.40, -17867.00, 0.00, 0.00, 0.00, 0.00, 0.00, 0.00, 0.000, 0.000, 0.000, 11:27:41.163, 1561476461163
121, -40451.71, -18393.96, 0.00, 0.00, 0.00, 0.00, 0.00, 0.00, 0.000, 0.000, 0.000, 11:27:41.163, 1561476461163
122, -41489.60, -19399.06, 0.00, 0.00, 0.00, 0.00, 0.00, 0.00, 0.000, 0.000, 0.000, 11:27:41.163, 1561476461163
123, -41086.66, -19008.79, 0.00, 0.00, 0.00, 0.00, 0.00, 0.00, 0.000, 0.000, 0.000, 11:27:41.163, 1561476461163
124, -40013.55, -17966.89, 0.00, 0.00, 0.00, 0.00, 0.00, 0.00, 0.000, 0.000, 0.000, 11:27:41.163, 1561476461163
125, -40283.00, -18230.95, 0.00, 0.00, 0.00, 0.00, 0.00, 0.00, 0.000, 0.000, 0.000, 11:27:41.163, 1561476461163
126, -41364.52, -19287.61, 0.00, 0.00, 0.00, 0.00, 0.00, 0.00, 0.072, -0.042, 1.040, 11:27:41.163, 1561476461163
127, -41232.78, -19159.65, 0.00, 0.00, 0.00, 0.00, 0.00, 0.00, 0.000, 0.000, 0.000, 11:27:41.163, 1561476461163
128, -40131.46, -18086.27, 0.00, 0.00, 0.00, 0.00, 0.00, 0.00, 0.000, 0.000, 0.000, 11:27:41.163, 1561476461163
129, -40120.17, -18072.05, 0.00, 0.00, 0.00, 0.00, 0.00, 0.00, 0.000, 0.000, 0.000, 11:27:41.164, 1561476461164
130, -41229.89, -19148.98, 0.00, 0.00, 0.00, 0.00, 0.00, 0.00, 0.000, 0.000, 0.000, 11:27:41.164, 1561476461164
131, -41413.51, -19321.92, 0.00, 0.00, 0.00, 0.00, 0.00, 0.00, 0.000, 0.000, 0.000, 11:27:41.164, 1561476461164
132, -40326.43, -18275.54, 0.00, 0.00, 0.00, 0.00, 0.00, 0.00, 0.000, 0.000, 0.000, 11:27:41.164, 1561476461164
133, -39998.24, -17958.33, 0.00, 0.00, 0.00, 0.00, 0.00, 0.00, 0.000, 0.000, 0.000, 11:27:41.164, 1561476461164
134, -41027.77, -18950.68, 0.00, 0.00, 0.00, 0.00, 0.00, 0.00, 0.000, 0.000, 0.000, 11:27:41.164, 1561476461164
135, -41479.98, -19389.62, 0.00, 0.00, 0.00, 0.00, 0.00, 0.00, 0.000, 0.000, 0.000, 11:27:41.164, 1561476461164
136, -40484.64, -18429.75, 0.00, 0.00, 0.00, 0.00, 0.00, 0.00, 0.068, -0.042, 1.034, 11:27:41.164, 1561476461164
137, -39906.42, -17868.21, 0.00, 0.00, 0.00, 0.00, 0.00, 0.00, 0.000, 0.000, 0.000, 11:27:41.164, 1561476461164
138, -40825.21, -18756.64, 0.00, 0.00, 0.00, 0.00, 0.00, 0.00, 0.000, 0.000, 0.000, 11:27:41.164, 1561476461164
139, -41538.44, -19446.29, 0.00, 0.00, 0.00, 0.00, 0.00, 0.00, 0.000, 0.000, 0.000, 11:27:41.164, 1561476461164
140, -40689.36, -18623.00, 0.00, 0.00, 0.00, 0.00, 0.00, 0.00, 0.000, 0.000, 0.000, 11:27:41.164, 1561476461164
141, -39860.42, -17816.42, 0.00, 0.00, 0.00, 0.00, 0.00, 0.00, 0.000, 0.000, 0.000, 11:27:41.164, 1561476461164
142, -40608.40, -18539.14, 0.00, 0.00, 0.00, 0.00, 0.00, 0.00, 0.000, 0.000, 0.000, 11:27:41.164, 1561476461164
143, -41522.07, -19429.90, 0.00, 0.00, 0.00, 0.00, 0.00, 0.00, 0.000, 0.000, 0.000, 11:27:41.164, 1561476461164
144, -40882.05, -18813.37, 0.00, 0.00, 0.00, 0.00, 0.00, 0.00, 0.000, 0.000, 0.000, 11:27:41.164, 1561476461164
145, -39903.74, -17861.72, 0.00, 0.00, 0.00, 0.00, 0.00, 0.00, 0.000, 0.000, 0.000, 11:27:41.164, 1561476461164
146, -40422.70, -18361.91, 0.00, 0.00, 0.00, 0.00, 0.00, 0.00, 0.068, -0.038, 1.040, 11:27:41.164, 1561476461164
147, -41486.45, -19397.54, 0.00, 0.00, 0.00, 0.00, 0.00, 0.00, 0.000, 0.000, 0.000, 11:27:41.165, 1561476461165
148, -41095.29, -19020.04, 0.00, 0.00, 0.00, 0.00, 0.00, 0.00, 0.000, 0.000, 0.000, 11:27:41.165, 1561476461165
149, -39994.55, -17952.90, 0.00, 0.00, 0.00, 0.00, 0.00, 0.00, 0.000, 0.000, 0.000, 11:27:41.165, 1561476461165
150, -40246.24, -18193.80, 0.00, 0.00, 0.00, 0.00, 0.00, 0.00, 0.000, 0.000, 0.000, 11:27:41.165, 1561476461165
151, -41368.85, -19283.12, 0.00, 0.00, 0.00, 0.00, 0.00, 0.00, 0.000, 0.000, 0.000, 11:27:41.165, 1561476461165
152, -41256.51, -19174.55, 0.00, 0.00, 0.00, 0.00, 0.00, 0.00, 0.000, 0.000, 0.000, 11:27:41.165, 1561476461165
153, -40129.34, -18083.32, 0.00, 0.00, 0.00, 0.00, 0.00, 0.00, 0.000, 0.000, 0.000, 11:27:41.165, 1561476461165
154, -40078.64, -18032.63, 0.00, 0.00, 0.00, 0.00, 0.00, 0.00, 0.000, 0.000, 0.000, 11:27:41.165, 1561476461165
155, -41200.93, -19121.27, 0.00, 0.00, 0.00, 0.00, 0.00, 0.00, 0.000, 0.000, 0.000, 11:27:41.165, 1561476461165
156, -41392.30, -19307.59, 0.00, 0.00, 0.00, 0.00, 0.00, 0.00, 0.070, -0.042, 1.028, 11:27:41.165, 1561476461165
157, -40283.65, -18233.90, 0.00, 0.00, 0.00, 0.00, 0.00, 0.00, 0.000, 0.000, 0.000, 11:27:41.165, 1561476461165
158, -39935.28, -17893.55, 0.00, 0.00, 0.00, 0.00, 0.00, 0.00, 0.000, 0.000, 0.000, 11:27:41.165, 1561476461165
159, -40994.80, -18919.88, 0.00, 0.00, 0.00, 0.00, 0.00, 0.00, 0.000, 0.000, 0.000, 11:27:41.166, 1561476461166
160, -41482.76, -19393.24, 0.00, 0.00, 0.00, 0.00, 0.00, 0.00, 0.000, 0.000, 0.000, 11:27:41.166, 1561476461166
161, -40482.34, -18419.42, 0.00, 0.00, 0.00, 0.00, 0.00, 0.00, 0.000, 0.000, 0.000, 11:27:41.166, 1561476461166
162, -39894.06, -17854.17, 0.00, 0.00, 0.00, 0.00, 0.00, 0.00, 0.000, 0.000, 0.000, 11:27:41.166, 1561476461166
163, -40834.63, -18770.79, 0.00, 0.00, 0.00, 0.00, 0.00, 0.00, 0.000, 0.000, 0.000, 11:27:41.166, 1561476461166
164, -41553.75, -19470.13, 0.00, 0.00, 0.00, 0.00, 0.00, 0.00, 0.000, 0.000, 0.000, 11:27:41.166, 1561476461166
165, -40697.79, -18637.69, 0.00, 0.00, 0.00, 0.00, 0.00, 0.00, 0.000, 0.000, 0.000, 11:27:41.166, 1561476461166
166, -39857.38, -17819.79, 0.00, 0.00, 0.00, 0.00, 0.00, 0.00, 0.000, 0.000, 0.000, 11:27:41.166, 1561476461166
167, -40616.79, -18553.85, 0.00, 0.00, 0.00, 0.00, 0.00, 0.00, 0.068, -0.040, 1.032, 11:27:41.166, 1561476461166
168, -41558.73, -19474.36, 0.00, 0.00, 0.00, 0.00, 0.00, 0.00, 0.000, 0.000, 0.000, 11:27:41.166, 1561476461166
169, -40915.34, -18851.15, 0.00, 0.00, 0.00, 0.00, 0.00, 0.00, 0.000, 0.000, 0.000, 11:27:41.166, 1561476461166
170, -39891.85, -17849.01, 0.00, 0.00, 0.00, 0.00, 0.00, 0.00, 0.000, 0.000, 0.000, 11:27:41.166, 1561476461166
171, -40397.67, -18346.24, 0.00, 0.00, 0.00, 0.00, 0.00, 0.00, 0.000, 0.000, 0.000, 11:27:41.166, 1561476461166
172, -41452.58, -19373.26, 0.00, 0.00, 0.00, 0.00, 0.00, 0.00, 0.000, 0.000, 0.000, 11:27:41.166, 1561476461166
173, -41051.12, -18981.68, 0.00, 0.00, 0.00, 0.00, 0.00, 0.00, 0.000, 0.000, 0.000, 11:27:41.166, 1561476461166
174, -39937.85, -17897.27, 0.00, 0.00, 0.00, 0.00, 0.00, 0.00, 0.000, 0.000, 0.000, 11:27:41.166, 1561476461166
175, -40186.42, -18138.91, 0.00, 0.00, 0.00, 0.00, 0.00, 0.00, 0.000, 0.000, 0.000, 11:27:41.166, 1561476461166
176, -41310.47, -19234.17, 0.00, 0.00, 0.00, 0.00, 0.00, 0.00, 0.000, 0.000, 0.000, 11:27:41.166, 1561476461166
177, -41217.24, -19143.91, 0.00, 0.00, 0.00, 0.00, 0.00, 0.00, 0.068, -0.040, 1.034, 11:27:41.166, 1561476461166
178, -40082.73, -18041.84, 0.00, 0.00, 0.00, 0.00, 0.00, 0.00, 0.000, 0.000, 0.000, 11:27:41.166, 1561476461166
179, -39996.32, -17957.53, 0.00, 0.00, 0.00, 0.00, 0.00, 0.00, 0.000, 0.000, 0.000, 11:27:41.166, 1561476461166
180, -41147.46, -19072.16, 0.00, 0.00, 0.00, 0.00, 0.00, 0.00, 0.000, 0.000, 0.000, 11:27:41.166, 1561476461166
181, -41408.06, -19328.71, 0.00, 0.00, 0.00, 0.00, 0.00, 0.00, 0.000, 0.000, 0.000, 11:27:41.166, 1561476461166
182, -40365.24, -18317.37, 0.00, 0.00, 0.00, 0.00, 0.00, 0.00, 0.000, 0.000, 0.000, 11:27:41.166, 1561476461166
183, -40014.72, -17972.66, 0.00, 0.00, 0.00, 0.00, 0.00, 0.00, 0.000, 0.000, 0.000, 11:27:41.166, 1561476461166
184, -41047.28, -18970.42, 0.00, 0.00, 0.00, 0.00, 0.00, 0.00, 0.000, 0.000, 0.000, 11:27:41.166, 1561476461166
185, -41540.00, -19448.83, 0.00, 0.00, 0.00, 0.00, 0.00, 0.00, 0.000, 0.000, 0.000, 11:27:41.166, 1561476461166
186, -40544.43, -18483.64, 0.00, 0.00, 0.00, 0.00, 0.00, 0.00, 0.000, 0.000, 0.000, 11:27:41.166, 1561476461166
187, -39863.64, -17824.22, 0.00, 0.00, 0.00, 0.00, 0.00, 0.00, 0.072, -0.040, 1.028, 11:27:41.166, 1561476461166
188, -40744.97, -18680.47, 0.00, 0.00, 0.00, 0.00, 0.00, 0.00, 0.000, 0.000, 0.000, 11:27:41.167, 1561476461167
189, -41522.95, -19433.75, 0.00, 0.00, 0.00, 0.00, 0.00, 0.00, 0.000, 0.000, 0.000, 11:27:41.167, 1561476461167
190, -40710.19, -18645.80, 0.00, 0.00, 0.00, 0.00, 0.00, 0.00, 0.000, 0.000, 0.000, 11:27:41.167, 1561476461167
191, -39825.87, -17789.89, 0.00, 0.00, 0.00, 0.00, 0.00, 0.00, 0.000, 0.000, 0.000, 11:27:41.167, 1561476461167
192, -40538.78, -18479.46, 0.00, 0.00, 0.00, 0.00, 0.00, 0.00, 0.000, 0.000, 0.000, 11:27:41.167, 1561476461167
193, -41509.47, -19418.88, 0.00, 0.00, 0.00, 0.00, 0.00, 0.00, 0.000, 0.000, 0.000, 11:27:41.167, 1561476461167
194, -40920.72, -18845.58, 0.00, 0.00, 0.00, 0.00, 0.00, 0.00, 0.000, 0.000, 0.000, 11:27:41.640, 1561476461640
195, -39882.86, -17838.26, 0.00, 0.00, 0.00, 0.00, 0.00, 0.00, 0.000, 0.000, 0.000, 11:27:41.640, 1561476461640
196, -40346.89, -18288.46, 0.00, 0.00, 0.00, 0.00, 0.00, 0.00, 0.000, 0.000, 0.000, 11:27:41.640, 1561476461640
197, -41422.12, -19330.66, 0.00, 0.00, 0.00, 0.00, 0.00, 0.00, 0.074, -0.036, 1.022, 11:27:41.640, 1561476461640
198, -41108.81, -19028.42, 0.00, 0.00, 0.00, 0.00, 0.00, 0.00, 0.000, 0.000, 0.000, 11:27:41.640, 1561476461640
199, -40006.74, -17957.57, 0.00, 0.00, 0.00, 0.00, 0.00, 0.00, 0.000, 0.000, 0.000, 11:27:41.640, 1561476461640
200, -40194.09, -18137.50, 0.00, 0.00, 0.00, 0.00, 0.00, 0.00, 0.000, 0.000, 0.000, 11:27:41.640, 1561476461640
201, -41318.56, -19230.23, 0.00, 0.00, 0.00, 0.00, 0.00, 0.00, 0.000, 0.000, 0.000, 11:27:41.640, 1561476461640
202, -41266.80, -19183.14, 0.00, 0.00, 0.00, 0.00, 0.00, 0.00, 0.000, 0.000, 0.000, 11:27:41.641, 1561476461641
203, -40131.80, -18082.36, 0.00, 0.00, 0.00, 0.00, 0.00, 0.00, 0.000, 0.000, 0.000, 11:27:41.641, 1561476461641
204, -40037.56, -17985.04, 0.00, 0.00, 0.00, 0.00, 0.00, 0.00, 0.000, 0.000, 0.000, 11:27:41.641, 1561476461641
205, -41147.01, -19059.91, 0.00, 0.00, 0.00, 0.00, 0.00, 0.00, 0.000, 0.000, 0.000, 11:27:41.641, 1561476461641
206, -41394.22, -19300.11, 0.00, 0.00, 0.00, 0.00, 0.00, 0.00, 0.000, 0.000, 0.000, 11:27:41.641, 1561476461641
207, -40335.09, -18273.80, 0.00, 0.00, 0.00, 0.00, 0.00, 0.00, 0.078, -0.034, 1.032, 11:27:41.641, 1561476461641
208, -39930.54, -17877.42, 0.00, 0.00, 0.00, 0.00, 0.00, 0.00, 0.000, 0.000, 0.000, 11:27:41.641, 1561476461641
209, -40953.18, -18871.02, 0.00, 0.00, 0.00, 0.00, 0.00, 0.00, 0.000, 0.000, 0.000, 11:27:41.641, 1561476461641
210, -41481.82, -19388.04, 0.00, 0.00, 0.00, 0.00, 0.00, 0.00, 0.000, 0.000, 0.000, 11:27:41.641, 1561476461641
211, -40518.88, -18460.28, 0.00, 0.00, 0.00, 0.00, 0.00, 0.00, 0.000, 0.000, 0.000, 11:27:41.641, 1561476461641
212, -39851.97, -17812.44, 0.00, 0.00, 0.00, 0.00, 0.00, 0.00, 0.000, 0.000, 0.000, 11:27:41.641, 1561476461641
213, -40733.53, -18661.72, 0.00, 0.00, 0.00, 0.00, 0.00, 0.00, 0.000, 0.000, 0.000, 11:27:41.641, 1561476461641
214, -41497.53, -19405.81, 0.00, 0.00, 0.00, 0.00, 0.00, 0.00, 0.000, 0.000, 0.000, 11:27:41.641, 1561476461641
215, -40711.98, -18643.34, 0.00, 0.00, 0.00, 0.00, 0.00, 0.00, 0.000, 0.000, 0.000, 11:27:41.641, 1561476461641
216, -39848.20, -17799.30, 0.00, 0.00, 0.00, 0.00, 0.00, 0.00, 0.000, 0.000, 0.000, 11:27:41.641, 1561476461641
217, -40538.11, -18467.70, 0.00, 0.00, 0.00, 0.00, 0.00, 0.00, 0.074, -0.038, 1.038, 11:27:41.641, 1561476461641
218, -41482.96, -19383.34, 0.00, 0.00, 0.00, 0.00, 0.00, 0.00, 0.000, 0.000, 0.000, 11:27:41.641, 1561476461641
219, -40892.05, -18811.47, 0.00, 0.00, 0.00, 0.00, 0.00, 0.00, 0.000, 0.000, 0.000, 11:27:41.641, 1561476461641
220, -39868.80, -17822.30, 0.00, 0.00, 0.00, 0.00, 0.00, 0.00, 0.000, 0.000, 0.000, 11:27:41.641, 1561476461641
221, -40333.32, -18272.33, 0.00, 0.00, 0.00, 0.00, 0.00, 0.00, 0.000, 0.000, 0.000, 11:27:41.641, 1561476461641
222, -41396.19, -19305.80, 0.00, 0.00, 0.00, 0.00, 0.00, 0.00, 0.000, 0.000, 0.000, 11:27:41.641, 1561476461641
223, -41058.19, -18978.35, 0.00, 0.00, 0.00, 0.00, 0.00, 0.00, 0.000, 0.000, 0.000, 11:27:41.641, 1561476461641
224, -39954.08, -17907.57, 0.00, 0.00, 0.00, 0.00, 0.00, 0.00, 0.000, 0.000, 0.000, 11:27:41.641, 1561476461641
225, -40156.41, -18100.40, 0.00, 0.00, 0.00, 0.00, 0.00, 0.00, 0.000, 0.000, 0.000, 11:27:41.642, 1561476461642
226, -41286.09, -19195.99, 0.00, 0.00, 0.00, 0.00, 0.00, 0.00, 0.000, 0.000, 0.000, 11:27:41.642, 1561476461642
227, -41249.09, -19159.51, 0.00, 0.00, 0.00, 0.00, 0.00, 0.00, 0.000, 0.000, 0.000, 11:27:41.642, 1561476461642
228, -40129.85, -18076.21, 0.00, 0.00, 0.00, 0.00, 0.00, 0.00, 0.064, -0.038, 1.030, 11:27:41.642, 1561476461642
229, -40018.52, -17968.59, 0.00, 0.00, 0.00, 0.00, 0.00, 0.00, 0.000, 0.000, 0.000, 11:27:41.642, 1561476461642
230, -41107.72, -19025.31, 0.00, 0.00, 0.00, 0.00, 0.00, 0.00, 0.000, 0.000, 0.000, 11:27:41.643, 1561476461643
231, -41359.42, -19272.39, 0.00, 0.00, 0.00, 0.00, 0.00, 0.00, 0.000, 0.000, 0.000, 11:27:41.643, 1561476461643
232, -40290.98, -18233.88, 0.00, 0.00, 0.00, 0.00, 0.00, 0.00, 0.000, 0.000, 0.000, 11:27:41.643, 1561476461643
233, -39887.43, -17840.07, 0.00, 0.00, 0.00, 0.00, 0.00, 0.00, 0.000, 0.000, 0.000, 11:27:41.643, 1561476461643
234, -40902.48, -18817.69, 0.00, 0.00, 0.00, 0.00, 0.00, 0.00, 0.000, 0.000, 0.000, 11:27:41.643, 1561476461643
235, -41455.42, -19357.86, 0.00, 0.00, 0.00, 0.00, 0.00, 0.00, 0.000, 0.000, 0.000, 11:27:41.643, 1561476461643
236, -40499.55, -18437.66, 0.00, 0.00, 0.00, 0.00, 0.00, 0.00, 0.000, 0.000, 0.000, 11:27:41.643, 1561476461643
237, -39838.05, -17792.77, 0.00, 0.00, 0.00, 0.00, 0.00, 0.00, 0.000, 0.000, 0.000, 11:27:41.643, 1561476461643
238, -40721.90, -18646.09, 0.00, 0.00, 0.00, 0.00, 0.00, 0.00, 0.074, -0.046, 1.030, 11:27:41.643, 1561476461643
239, -41493.55, -19396.62, 0.00, 0.00, 0.00, 0.00, 0.00, 0.00, 0.000, 0.000, 0.000, 11:27:41.643, 1561476461643
240, -40694.14, -18621.95, 0.00, 0.00, 0.00, 0.00, 0.00, 0.00, 0.000, 0.000, 0.000, 11:27:41.643, 1561476461643
241, -39817.51, -17768.45, 0.00, 0.00, 0.00, 0.00, 0.00, 0.00, 0.000, 0.000, 0.000, 11:27:41.644, 1561476461644
242, -40504.18, -18434.69, 0.00, 0.00, 0.00, 0.00, 0.00, 0.00, 0.000, 0.000, 0.000, 11:27:41.644, 1561476461644
243, -41460.38, -19364.43, 0.00, 0.00, 0.00, 0.00, 0.00, 0.00, 0.000, 0.000, 0.000, 11:27:41.644, 1561476461644
244, -40881.34, -18804.30, 0.00, 0.00, 0.00, 0.00, 0.00, 0.00, 0.000, 0.000, 0.000, 11:27:41.644, 1561476461644
245, -39865.88, -17816.64, 0.00, 0.00, 0.00, 0.00, 0.00, 0.00, 0.000, 0.000, 0.000, 11:27:41.644, 1561476461644
246, -40328.29, -18262.98, 0.00, 0.00, 0.00, 0.00, 0.00, 0.00, 0.000, 0.000, 0.000, 11:27:41.644, 1561476461644
247, -41407.97, -19310.79, 0.00, 0.00, 0.00, 0.00, 0.00, 0.00, 0.000, 0.000, 0.000, 11:27:41.644, 1561476461644
248, -41081.99, -18999.05, 0.00, 0.00, 0.00, 0.00, 0.00, 0.00, 0.078, -0.042, 1.038, 11:27:41.644, 1561476461644
249, -39964.56, -17914.68, 0.00, 0.00, 0.00, 0.00, 0.00, 0.00, 0.000, 0.000, 0.000, 11:27:41.644, 1561476461644
250, -40128.89, -18073.20, 0.00, 0.00, 0.00, 0.00, 0.00, 0.00, 0.000, 0.000, 0.000, 11:27:41.644, 1561476461644
251, -41266.01, -19171.63, 0.00, 0.00, 0.00, 0.00, 0.00, 0.00, 0.000, 0.000, 0.000, 11:27:41.644, 1561476461644
252, -41252.07, -19159.06, 0.00, 0.00, 0.00, 0.00, 0.00, 0.00, 0.000, 0.000, 0.000, 11:27:41.644, 1561476461644
253, -40118.90, -18064.37, 0.00, 0.00, 0.00, 0.00, 0.00, 0.00, 0.000, 0.000, 0.000, 11:27:41.644, 1561476461644
254, -39980.43, -17928.02, 0.00, 0.00, 0.00, 0.00, 0.00, 0.00, 0.000, 0.000, 0.000, 11:27:41.644, 1561476461644
255, -41091.58, -19004.62, 0.00, 0.00, 0.00, 0.00, 0.00, 0.00, 0.000, 0.000, 0.000, 11:27:41.644, 1561476461644
0, -41387.20, -19290.72, 0.00, 0.00, 0.00, 0.00, 0.00, 0.00, 0.000, 0.000, 0.000, 11:27:41.645, 1561476461645
1, -40301.80, -18241.79, 0.00, 0.00, 0.00, 0.00, 0.00, 0.00, 0.000, 0.000, 0.000, 11:27:41.645, 1561476461645
2, -39878.86, -17829.25, 0.00, 0.00, 0.00, 0.00, 0.00, 0.00, 0.080, -0.042, 1.036, 11:27:41.645, 1561476461645
3, -40894.93, -18810.69, 0.00, 0.00, 0.00, 0.00, 0.00, 0.00, 0.000, 0.000, 0.000, 11:27:41.645, 1561476461645
4, -41439.35, -19341.50, 0.00, 0.00, 0.00, 0.00, 0.00, 0.00, 0.000, 0.000, 0.000, 11:27:41.645, 1561476461645
5, -40486.09, -18418.51, 0.00, 0.00, 0.00, 0.00, 0.00, 0.00, 0.000, 0.000, 0.000, 11:27:41.645, 1561476461645
6, -39801.68, -17754.46, 0.00, 0.00, 0.00, 0.00, 0.00, 0.00, 0.000, 0.000, 0.000, 11:27:41.645, 1561476461645
7, -40689.09, -18615.27, 0.00, 0.00, 0.00, 0.00, 0.00, 0.00, 0.000, 0.000, 0.000, 11:27:41.645, 1561476461645
8, -41493.42, -19398.23, 0.00, 0.00, 0.00, 0.00, 0.00, 0.00, 0.000, 0.000, 0.000, 11:27:41.645, 1561476461645
9, -40708.58, -18639.57, 0.00, 0.00, 0.00, 0.00, 0.00, 0.00, 0.000, 0.000, 0.000, 11:27:41.645, 1561476461645
10, -39812.16, -17767.47, 0.00, 0.00, 0.00, 0.00, 0.00, 0.00, 0.000, 0.000, 0.000, 11:27:41.645, 1561476461645
11, -40493.07, -18428.37, 0.00, 0.00, 0.00, 0.00, 0.00, 0.00, 0.000, 0.000, 0.000, 11:27:41.645, 1561476461645
12, -41470.31, -19374.76, 0.00, 0.00, 0.00, 0.00, 0.00, 0.00, 0.076, -0.038, 1.038, 11:27:41.645, 1561476461645
13, -40905.88, -18832.84, 0.00, 0.00, 0.00, 0.00, 0.00, 0.00, 0.000, 0.000, 0.000, 11:27:41.645, 1561476461645
14, -39861.92, -17819.35, 0.00, 0.00, 0.00, 0.00, 0.00, 0.00, 0.000, 0.000, 0.000, 11:27:41.645, 1561476461645
15, -40308.80, -18243.94, 0.00, 0.00, 0.00, 0.00, 0.00, 0.00, 0.000, 0.000, 0.000, 11:27:41.645, 1561476461645
16, -41398.09, -19299.50, 0.00, 0.00, 0.00, 0.00, 0.00, 0.00, 0.000, 0.000, 0.000, 11:27:41.645, 1561476461645
17, -41106.69, -19021.71, 0.00, 0.00, 0.00, 0.00, 0.00, 0.00, 0.000, 0.000, 0.000, 11:27:41.645, 1561476461645
18, -39977.10, -17927.46, 0.00, 0.00, 0.00, 0.00, 0.00, 0.00, 0.000, 0.000, 0.000, 11:27:41.646, 1561476461646
19, -40106.32, -18051.89, 0.00, 0.00, 0.00, 0.00, 0.00, 0.00, 0.000, 0.000, 0.000, 11:27:41.646, 1561476461646
20, -41236.75, -19150.17, 0.00, 0.00, 0.00, 0.00, 0.00, 0.00, 0.000, 0.000, 0.000, 11:27:41.646, 1561476461646
21, -41232.08, -19146.30, 0.00, 0.00, 0.00, 0.00, 0.00, 0.00, 0.000, 0.000, 0.000, 11:27:41.646, 1561476461646
22, -40116.91, -18062.73, 0.00, 0.00, 0.00, 0.00, 0.00, 0.00, 0.000, 0.000, 0.000, 11:27:41.646, 1561476461646
23, -39985.86, -17927.89, 0.00, 0.00, 0.00, 0.00, 0.00, 0.00, 0.080, -0.040, 1.030, 11:27:41.646, 1561476461646
24, -41100.18, -19006.49, 0.00, 0.00, 0.00, 0.00, 0.00, 0.00, 0.000, 0.000, 0.000, 11:27:41.646, 1561476461646
25, -41379.78, -19285.73, 0.00, 0.00, 0.00, 0.00, 0.00, 0.00, 0.000, 0.000, 0.000, 11:27:41.646, 1561476461646
26, -40305.47, -18247.43, 0.00, 0.00, 0.00, 0.00, 0.00, 0.00, 0.000, 0.000, 0.000, 11:27:41.646, 1561476461646
27, -39861.88, -17812.95, 0.00, 0.00, 0.00, 0.00, 0.00, 0.00, 0.000, 0.000, 0.000, 11:27:41.646, 1561476461646
28, -40877.23, -18794.51, 0.00, 0.00, 0.00, 0.00, 0.00, 0.00, 0.000, 0.000, 0.000, 11:27:41.646, 1561476461646
29, -41444.96, -19349.50, 0.00, 0.00, 0.00, 0.00, 0.00, 0.00, 0.000, 0.000, 0.000, 11:27:41.646, 1561476461646
30, -40500.09, -18437.82, 0.00, 0.00, 0.00, 0.00, 0.00, 0.00, 0.000, 0.000, 0.000, 11:27:41.646, 1561476461646
31, -39796.09, -17748.94, 0.00, 0.00, 0.00, 0.00, 0.00, 0.00, 0.000, 0.000, 0.000, 11:27:41.646, 1561476461646
32, -40665.55, -18586.35, 0.00, 0.00, 0.00, 0.00, 0.00, 0.00, 0.000, 0.000, 0.000, 11:27:41.646, 1561476461646
33, -41497.11, -19396.42, 0.00, 0.00, 0.00, 0.00, 0.00, 0.00, 0.076, -0.038, 1.030, 11:27:41.646, 1561476461646
34, -40716.68, -18645.45, 0.00, 0.00, 0.00, 0.00, 0.00, 0.00, 0.000, 0.000, 0.000, 11:27:41.646, 1561476461646
35, -39799.11, -17753.74, 0.00, 0.00, 0.00, 0.00, 0.00, 0.00, 0.000, 0.000, 0.000, 11:27:41.647, 1561476461647
36, -40468.17, -18399.87, 0.00, 0.00, 0.00, 0.00, 0.00, 0.00, 0.000, 0.000, 0.000, 11:27:41.647, 1561476461647
37, -41445.09, -19353.12, 0.00, 0.00, 0.00, 0.00, 0.00, 0.00, 0.000, 0.000, 0.000, 11:27:41.647, 1561476461647
38, -40903.38, -18828.82, 0.00, 0.00, 0.00, 0.00, 0.00, 0.00, 0.000, 0.000, 0.000, 11:27:41.647, 1561476461647
39, -39868.49, -17822.72, 0.00, 0.00, 0.00, 0.00, 0.00, 0.00, 0.000, 0.000, 0.000, 11:27:41.647, 1561476461647
40, -40285.22, -18220.63, 0.00, 0.00, 0.00, 0.00, 0.00, 0.00, 0.000, 0.000, 0.000, 11:27:41.647, 1561476461647
41, -41380.83, -19283.05, 0.00, 0.00, 0.00, 0.00, 0.00, 0.00, 0.000, 0.000, 0.000, 11:27:41.647, 1561476461647
42, -41086.02, -19001.93, 0.00, 0.00, 0.00, 0.00, 0.00, 0.00, 0.000, 0.000, 0.000, 11:27:41.647, 1561476461647
43, -39953.90, -17905.31, 0.00, 0.00, 0.00, 0.00, 0.00, 0.00, 0.074, -0.038, 1.032, 11:27:41.647, 1561476461647
44, -40090.71, -18036.00, 0.00, 0.00, 0.00, 0.00, 0.00, 0.00, 0.000, 0.000, 0.000, 11:27:41.647, 1561476461647
45, -41223.37, -19134.23, 0.00, 0.00, 0.00, 0.00, 0.00, 0.00, 0.000, 0.000, 0.000, 11:27:41.647, 1561476461647
46, -41228.60, -19145.03, 0.00, 0.00, 0.00, 0.00, 0.00, 0.00, 0.000, 0.000, 0.000, 11:27:41.647, 1561476461647
47, -40104.44, -18054.67, 0.00, 0.00, 0.00, 0.00, 0.00, 0.00, 0.000, 0.000, 0.000, 11:27:41.647, 1561476461647
48, -39933.54, -17885.22, 0.00, 0.00, 0.00, 0.00, 0.00, 0.00, 0.000, 0.000, 0.000, 11:27:41.647, 1561476461647
