%OpenBCI Raw EEG Data
%Number of channels = 8
%Sample Rate = 250.0 Hz
%First Column = SampleIndex
%Last Column = Timestamp 
%Other Columns = EEG data in microvolts followed by Accel Data (in G) interleaved with Aux Data
0, -35611.96, -15496.46, 0.00, 0.00, 0.00, 0.00, 0.00, 0.00, 0.024, -0.024, 0.498, 11:23:58.103, 1561476238103
1, -34812.19, -14734.69, 0.00, 0.00, 0.00, 0.00, 0.00, 0.00, 0.000, 0.000, 0.000, 11:23:58.103, 1561476238103
2, -35152.21, -15073.39, 0.00, 0.00, 0.00, 0.00, 0.00, 0.00, 0.000, 0.000, 0.000, 11:23:58.104, 1561476238104
3, -35996.70, -15888.56, 0.00, 0.00, 0.00, 0.00, 0.00, 0.00, 0.000, 0.000, 0.000, 11:23:58.104, 1561476238104
4, -35702.75, -15601.05, 0.00, 0.00, 0.00, 0.00, 0.00, 0.00, 0.000, 0.000, 0.000, 11:23:58.104, 1561476238104
5, -34813.04, -14752.02, 0.00, 0.00, 0.00, 0.00, 0.00, 0.00, 0.000, 0.000, 0.000, 11:23:58.104, 1561476238104
6, -34989.69, -14916.03, 0.00, 0.00, 0.00, 0.00, 0.00, 0.00, 0.000, 0.000, 0.000, 11:23:58.104, 1561476238104
7, -35923.52, -15796.42, 0.00, 0.00, 0.00, 0.00, 0.00, 0.00, 0.052, -0.028, 0.766, 11:23:58.104, 1561476238104
8, -35908.21, -15775.06, 0.00, 0.00, 0.00, 0.00, 0.00, 0.00, 0.000, 0.000, 0.000, 11:23:58.105, 1561476238105
9, -35037.97, -14946.10, 0.00, 0.00, 0.00, 0.00, 0.00, 0.00, 0.000, 0.000, 0.000, 11:23:58.105, 1561476238105
10, -34934.43, -14857.36, 0.00, 0.00, 0.00, 0.00, 0.00, 0.00, 0.000, 0.000, 0.000, 11:23:58.105, 1561476238105
11, -35801.88, -15688.17, 0.00, 0.00, 0.00, 0.00, 0.00, 0.00, 0.000, 0.000, 0.000, 11:23:58.105, 1561476238105
12, -36003.45, -15886.41, 0.00, 0.00, 0.00, 0.00, 0.00, 0.00, 0.000, 0.000, 0.000, 11:23:58.105, 1561476238105
13, -35178.49, -15097.91, 0.00, 0.00, 0.00, 0.00, 0.00, 0.00, 0.000, 0.000, 0.000, 11:23:58.105, 1561476238105
14, -34866.39, -14796.27, 0.00, 0.00, 0.00, 0.00, 0.00, 0.00, 0.000, 0.000, 0.000, 11:23:58.105, 1561476238105
15, -35643.30, -15544.34, 0.00, 0.00, 0.00, 0.00, 0.00, 0.00, 0.000, 0.000, 0.000, 11:23:58.106, 1561476238106
16, -36056.76, -15945.22, 0.00, 0.00, 0.00, 0.00, 0.00, 0.00, 0.000, 0.000, 0.000, 11:23:58.106, 1561476238106
17, -35302.57, -15219.24, 0.00, 0.00, 0.00, 0.00, 0.00, 0.00, 0.064, -0.044, 0.906, 11:23:58.106, 1561476238106
18, -34779.31, -14710.38, 0.00, 0.00, 0.00, 0.00, 0.00, 0.00, 0.000, 0.000, 0.000, 11:23:58.106, 1561476238106
19, -35497.03, -15393.15, 0.00, 0.00, 0.00, 0.00, 0.00, 0.00, 0.000, 0.000, 0.000, 11:23:58.106, 1561476238106
20, -36125.56, -15998.26, 0.00, 0.00, 0.00, 0.00, 0.00, 0.00, 0.000, 0.000, 0.000, 11:23:58.106, 1561476238106
21, -35515.00, -15413.36, 0.00, 0.00, 0.00, 0.00, 0.00, 0.00, 0.000, 0.000, 0.000, 11:23:58.106, 1561476238106
22, -34825.11, -14752.89, 0.00, 0.00, 0.00, 0.00, 0.00, 0.00, 0.000, 0.000, 0.000, 11:23:58.107, 1561476238107
23, -35399.95, -15296.57, 0.00, 0.00, 0.00, 0.00, 0.00, 0.00, 0.000, 0.000, 0.000, 11:23:58.107, 1561476238107
24, -36115.97, -16000.18, 0.00, 0.00, 0.00, 0.00, 0.00, 0.00, 0.000, 0.000, 0.000, 11:23:58.109, 1561476238109
25, -35656.38, -15558.51, 0.00, 0.00, 0.00, 0.00, 0.00, 0.00, 0.000, 0.000, 0.000, 11:23:58.110, 1561476238110
26, -34883.00, -14798.40, 0.00, 0.00, 0.00, 0.00, 0.00, 0.00, 0.000, 0.000, 0.000, 11:23:58.129, 1561476238129
27, -35284.17, -15179.65, 0.00, 0.00, 0.00, 0.00, 0.00, 0.00, 0.068, -0.038, 0.960, 11:23:58.129, 1561476238129
28, -36114.58, -15982.64, 0.00, 0.00, 0.00, 0.00, 0.00, 0.00, 0.000, 0.000, 0.000, 11:23:58.129, 1561476238129
29, -35820.28, -15698.39, 0.00, 0.00, 0.00, 0.00, 0.00, 0.00, 0.000, 0.000, 0.000, 11:23:58.129, 1561476238129
30, -34935.77, -14850.59, 0.00, 0.00, 0.00, 0.00, 0.00, 0.00, 0.000, 0.000, 0.000, 11:23:58.129, 1561476238129
31, -35086.31, -14997.82, 0.00, 0.00, 0.00, 0.00, 0.00, 0.00, 0.000, 0.000, 0.000, 11:23:58.130, 1561476238130
32, -35981.19, -15855.28, 0.00, 0.00, 0.00, 0.00, 0.00, 0.00, 0.000, 0.000, 0.000, 11:23:58.131, 1561476238131
33, -35961.52, -15843.43, 0.00, 0.00, 0.00, 0.00, 0.00, 0.00, 0.000, 0.000, 0.000, 11:23:58.131, 1561476238131
34, -35085.02, -15007.01, 0.00, 0.00, 0.00, 0.00, 0.00, 0.00, 0.000, 0.000, 0.000, 11:23:58.131, 1561476238131
35, -35025.38, -14942.34, 0.00, 0.00, 0.00, 0.00, 0.00, 0.00, 0.000, 0.000, 0.000, 11:23:58.132, 1561476238132
36, -35914.49, -15789.88, 0.00, 0.00, 0.00, 0.00, 0.00, 0.00, 0.000, 0.000, 0.000, 11:23:58.132, 1561476238132
37, -36112.10, -15973.36, 0.00, 0.00, 0.00, 0.00, 0.00, 0.00, 0.062, -0.040, 0.992, 11:23:58.132, 1561476238132
38, -35281.54, -15173.44, 0.00, 0.00, 0.00, 0.00, 0.00, 0.00, 0.000, 0.000, 0.000, 11:23:58.132, 1561476238132
39, -34957.10, -14870.26, 0.00, 0.00, 0.00, 0.00, 0.00, 0.00, 0.000, 0.000, 0.000, 11:23:58.132, 1561476238132
40, -35729.75, -15621.72, 0.00, 0.00, 0.00, 0.00, 0.00, 0.00, 0.000, 0.000, 0.000, 11:23:58.132, 1561476238132
41, -36123.19, -16000.32, 0.00, 0.00, 0.00, 0.00, 0.00, 0.00, 0.000, 0.000, 0.000, 11:23:58.132, 1561476238132
42, -35373.58, -15280.93, 0.00, 0.00, 0.00, 0.00, 0.00, 0.00, 0.000, 0.000, 0.000, 11:23:58.132, 1561476238132
43, -34881.01, -14801.53, 0.00, 0.00, 0.00, 0.00, 0.00, 0.00, 0.000, 0.000, 0.000, 11:23:58.132, 1561476238132
44, -35577.43, -15463.58, 0.00, 0.00, 0.00, 0.00, 0.00, 0.00, 0.000, 0.000, 0.000, 11:23:58.132, 1561476238132
45, -36204.26, -16068.94, 0.00, 0.00, 0.00, 0.00, 0.00, 0.00, 0.000, 0.000, 0.000, 11:23:58.133, 1561476238133
46, -35576.71, -15470.56, 0.00, 0.00, 0.00, 0.00, 0.00, 0.00, 0.000, 0.000, 0.000, 11:23:58.133, 1561476238133
47, -34907.32, -14832.77, 0.00, 0.00, 0.00, 0.00, 0.00, 0.00, 0.000, 0.000, 0.000, 11:23:58.133, 1561476238133
48, -35471.75, -15374.07, 0.00, 0.00, 0.00, 0.00, 0.00, 0.00, 0.074, -0.040, 1.012, 11:23:58.133, 1561476238133
49, -36208.62, -16076.27, 0.00, 0.00, 0.00, 0.00, 0.00, 0.00, 0.000, 0.000, 0.000, 11:23:58.133, 1561476238133
50, -35721.42, -15604.38, 0.00, 0.00, 0.00, 0.00, 0.00, 0.00, 0.000, 0.000, 0.000, 11:23:58.133, 1561476238133
51, -34968.52, -14893.77, 0.00, 0.00, 0.00, 0.00, 0.00, 0.00, 0.000, 0.000, 0.000, 11:23:58.133, 1561476238133
52, -35335.49, -15247.44, 0.00, 0.00, 0.00, 0.00, 0.00, 0.00, 0.000, 0.000, 0.000, 11:23:58.133, 1561476238133
53, -36149.16, -16023.05, 0.00, 0.00, 0.00, 0.00, 0.00, 0.00, 0.000, 0.000, 0.000, 11:23:58.134, 1561476238134
54, -35869.45, -15746.94, 0.00, 0.00, 0.00, 0.00, 0.00, 0.00, 0.000, 0.000, 0.000, 11:23:58.134, 1561476238134
55, -35013.56, -14922.38, 0.00, 0.00, 0.00, 0.00, 0.00, 0.00, 0.000, 0.000, 0.000, 11:23:58.134, 1561476238134
56, -35181.96, -15095.65, 0.00, 0.00, 0.00, 0.00, 0.00, 0.00, 0.000, 0.000, 0.000, 11:23:58.134, 1561476238134
57, -36070.95, -15955.46, 0.00, 0.00, 0.00, 0.00, 0.00, 0.00, 0.000, 0.000, 0.000, 11:23:58.134, 1561476238134
58, -36033.80, -15914.37, 0.00, 0.00, 0.00, 0.00, 0.00, 0.00, 0.078, -0.044, 1.022, 11:23:58.134, 1561476238134
59, -35172.77, -15086.00, 0.00, 0.00, 0.00, 0.00, 0.00, 0.00, 0.000, 0.000, 0.000, 11:23:58.134, 1561476238134
60, -35101.83, -15016.77, 0.00, 0.00, 0.00, 0.00, 0.00, 0.00, 0.000, 0.000, 0.000, 11:23:58.134, 1561476238134
61, -35947.71, -15833.62, 0.00, 0.00, 0.00, 0.00, 0.00, 0.00, 0.000, 0.000, 0.000, 11:23:58.135, 1561476238135
62, -36152.40, -16020.37, 0.00, 0.00, 0.00, 0.00, 0.00, 0.00, 0.000, 0.000, 0.000, 11:23:58.135, 1561476238135
63, -35307.08, -15204.68, 0.00, 0.00, 0.00, 0.00, 0.00, 0.00, 0.000, 0.000, 0.000, 11:23:58.135, 1561476238135
64, -34981.75, -14900.25, 0.00, 0.00, 0.00, 0.00, 0.00, 0.00, 0.000, 0.000, 0.000, 11:23:58.135, 1561476238135
65, -35817.26, -15708.69, 0.00, 0.00, 0.00, 0.00, 0.00, 0.00, 0.000, 0.000, 0.000, 11:23:58.135, 1561476238135
66, -36231.75, -16104.36, 0.00, 0.00, 0.00, 0.00, 0.00, 0.00, 0.000, 0.000, 0.000, 11:23:58.135, 1561476238135
67, -35496.40, -15391.59, 0.00, 0.00, 0.00, 0.00, 0.00, 0.00, 0.000, 0.000, 0.000, 11:23:58.135, 1561476238135
68, -34972.84, -14887.36, 0.00, 0.00, 0.00, 0.00, 0.00, 0.00, 0.080, -0.044, 1.024, 11:23:58.135, 1561476238135
69, -35640.66, -15524.87, 0.00, 0.00, 0.00, 0.00, 0.00, 0.00, 0.000, 0.000, 0.000, 11:23:58.135, 1561476238135
70, -36221.16, -16087.42, 0.00, 0.00, 0.00, 0.00, 0.00, 0.00, 0.000, 0.000, 0.000, 11:23:58.135, 1561476238135
71, -35607.42, -15507.17, 0.00, 0.00, 0.00, 0.00, 0.00, 0.00, 0.000, 0.000, 0.000, 11:23:58.135, 1561476238135
72, -34970.51, -14898.64, 0.00, 0.00, 0.00, 0.00, 0.00, 0.00, 0.000, 0.000, 0.000, 11:23:58.136, 1561476238136
73, -35527.96, -15437.03, 0.00, 0.00, 0.00, 0.00, 0.00, 0.00, 0.000, 0.000, 0.000, 11:23:58.137, 1561476238137
74, -36260.83, -16141.94, 0.00, 0.00, 0.00, 0.00, 0.00, 0.00, 0.000, 0.000, 0.000, 11:23:58.137, 1561476238137
75, -35806.71, -15694.97, 0.00, 0.00, 0.00, 0.00, 0.00, 0.00, 0.000, 0.000, 0.000, 11:23:58.137, 1561476238137
76, -35003.70, -14922.07, 0.00, 0.00, 0.00, 0.00, 0.00, 0.00, 0.000, 0.000, 0.000, 11:23:58.137, 1561476238137
77, -35387.62, -15293.44, 0.00, 0.00, 0.00, 0.00, 0.00, 0.00, 0.000, 0.000, 0.000, 11:23:58.137, 1561476238137
78, -36213.29, -16085.88, 0.00, 0.00, 0.00, 0.00, 0.00, 0.00, 0.072, -0.040, 1.022, 11:23:58.137, 1561476238137
79, -35928.93, -15818.60, 0.00, 0.00, 0.00, 0.00, 0.00, 0.00, 0.000, 0.000, 0.000, 11:23:58.137, 1561476238137
80, -35041.97, -14964.11, 0.00, 0.00, 0.00, 0.00, 0.00, 0.00, 0.000, 0.000, 0.000, 11:23:58.138, 1561476238138
81, -35196.82, -15108.68, 0.00, 0.00, 0.00, 0.00, 0.00, 0.00, 0.000, 0.000, 0.000, 11:23:58.138, 1561476238138
82, -36087.80, -15962.61, 0.00, 0.00, 0.00, 0.00, 0.00, 0.00, 0.000, 0.000, 0.000, 11:23:58.138, 1561476238138
83, -36073.77, -15949.20, 0.00, 0.00, 0.00, 0.00, 0.00, 0.00, 0.000, 0.000, 0.000, 11:23:58.138, 1561476238138
84, -35259.07, -15168.47, 0.00, 0.00, 0.00, 0.00, 0.00, 0.00, 0.000, 0.000, 0.000, 11:23:58.138, 1561476238138
85, -35223.98, -15134.28, 0.00, 0.00, 0.00, 0.00, 0.00, 0.00, 0.000, 0.000, 0.000, 11:23:58.138, 1561476238138
86, -36090.36, -15965.56, 0.00, 0.00, 0.00, 0.00, 0.00, 0.00, 0.000, 0.000, 0.000, 11:23:58.138, 1561476238138
87, -36238.23, -16109.21, 0.00, 0.00, 0.00, 0.00, 0.00, 0.00, 0.000, 0.000, 0.000, 11:23:58.138, 1561476238138
88, -35371.77, -15280.95, 0.00, 0.00, 0.00, 0.00, 0.00, 0.00, 0.068, -0.044, 1.032, 11:23:58.138, 1561476238138
89, -35056.45, -14985.66, 0.00, 0.00, 0.00, 0.00, 0.00, 0.00, 0.000, 0.000, 0.000, 11:23:58.139, 1561476238139
90, -35852.02, -15753.42, 0.00, 0.00, 0.00, 0.00, 0.00, 0.00, 0.000, 0.000, 0.000, 11:23:58.139, 1561476238139
91, -36269.46, -16145.22, 0.00, 0.00, 0.00, 0.00, 0.00, 0.00, 0.000, 0.000, 0.000, 11:23:58.139, 1561476238139
92, -35525.59, -15427.29, 0.00, 0.00, 0.00, 0.00, 0.00, 0.00, 0.000, 0.000, 0.000, 11:23:58.139, 1561476238139
93, -35018.57, -14942.36, 0.00, 0.00, 0.00, 0.00, 0.00, 0.00, 0.000, 0.000, 0.000, 11:23:58.139, 1561476238139
94, -35726.56, -15619.98, 0.00, 0.00, 0.00, 0.00, 0.00, 0.00, 0.000, 0.000, 0.000, 11:23:58.139, 1561476238139
95, -36307.01, -16175.96, 0.00, 0.00, 0.00, 0.00, 0.00, 0.00, 0.000, 0.000, 0.000, 11:23:58.139, 1561476238139
96, -35662.07, -15563.61, 0.00, 0.00, 0.00, 0.00, 0.00, 0.00, 0.000, 0.000, 0.000, 11:23:58.139, 1561476238139
97, -35003.50, -14928.95, 0.00, 0.00, 0.00, 0.00, 0.00, 0.00, 0.000, 0.000, 0.000, 11:23:58.140, 1561476238140
98, -35606.15, -15505.18, 0.00, 0.00, 0.00, 0.00, 0.00, 0.00, 0.066, -0.042, 1.030, 11:23:58.140, 1561476238140
99, -36334.97, -16204.90, 0.00, 0.00, 0.00, 0.00, 0.00, 0.00, 0.000, 0.000, 0.000, 11:23:58.140, 1561476238140
100, -35865.47, -15753.44, 0.00, 0.00, 0.00, 0.00, 0.00, 0.00, 0.000, 0.000, 0.000, 11:23:58.140, 1561476238140
101, -35070.18, -14993.37, 0.00, 0.00, 0.00, 0.00, 0.00, 0.00, 0.000, 0.000, 0.000, 11:23:58.140, 1561476238140
102, -35451.34, -15353.32, 0.00, 0.00, 0.00, 0.00, 0.00, 0.00, 0.000, 0.000, 0.000, 11:23:58.140, 1561476238140
103, -36273.82, -16141.40, 0.00, 0.00, 0.00, 0.00, 0.00, 0.00, 0.000, 0.000, 0.000, 11:23:58.140, 1561476238140
104, -36011.79, -15894.24, 0.00, 0.00, 0.00, 0.00, 0.00, 0.00, 0.000, 0.000, 0.000, 11:23:58.140, 1561476238140
105, -35159.72, -15081.48, 0.00, 0.00, 0.00, 0.00, 0.00, 0.00, 0.000, 0.000, 0.000, 11:23:58.140, 1561476238140
106, -35315.35, -15230.90, 0.00, 0.00, 0.00, 0.00, 0.00, 0.00, 0.000, 0.000, 0.000, 11:23:58.140, 1561476238140
107, -36180.30, -16059.68, 0.00, 0.00, 0.00, 0.00, 0.00, 0.00, 0.000, 0.000, 0.000, 11:23:58.140, 1561476238140
108, -36150.19, -16026.78, 0.00, 0.00, 0.00, 0.00, 0.00, 0.00, 0.000, 0.000, 0.000, 11:23:58.140, 1561476238140
109, -35292.60, -15202.78, 0.00, 0.00, 0.00, 0.00, 0.00, 0.00, 0.076, -0.040, 1.034, 11:23:58.140, 1561476238140
110, -35223.46, -15136.80, 0.00, 0.00, 0.00, 0.00, 0.00, 0.00, 0.000, 0.000, 0.000, 11:23:58.141, 1561476238141
111, -36072.29, -15956.11, 0.00, 0.00, 0.00, 0.00, 0.00, 0.00, 0.000, 0.000, 0.000, 11:23:58.141, 1561476238141
112, -36271.31, -16144.58, 0.00, 0.00, 0.00, 0.00, 0.00, 0.00, 0.000, 0.000, 0.000, 11:23:58.141, 1561476238141
113, -35448.21, -15343.29, 0.00, 0.00, 0.00, 0.00, 0.00, 0.00, 0.000, 0.000, 0.000, 11:23:58.141, 1561476238141
114, -35137.77, -15047.93, 0.00, 0.00, 0.00, 0.00, 0.00, 0.00, 0.000, 0.000, 0.000, 11:23:58.141, 1561476238141
115, -35930.11, -15817.84, 0.00, 0.00, 0.00, 0.00, 0.00, 0.00, 0.000, 0.000, 0.000, 11:23:58.141, 1561476238141
116, -36339.15, -16210.65, 0.00, 0.00, 0.00, 0.00, 0.00, 0.00, 0.000, 0.000, 0.000, 11:23:58.141, 1561476238141
117, -35616.21, -15516.38, 0.00, 0.00, 0.00, 0.00, 0.00, 0.00, 0.000, 0.000, 0.000, 11:23:58.141, 1561476238141
118, -35088.93, -15016.55, 0.00, 0.00, 0.00, 0.00, 0.00, 0.00, 0.000, 0.000, 0.000, 11:23:58.141, 1561476238141
119, -35777.96, -15677.51, 0.00, 0.00, 0.00, 0.00, 0.00, 0.00, 0.076, -0.042, 1.034, 11:23:58.142, 1561476238142
120, -36366.33, -16236.40, 0.00, 0.00, 0.00, 0.00, 0.00, 0.00, 0.000, 0.000, 0.000, 11:23:58.582, 1561476238582
121, -35726.82, -15616.02, 0.00, 0.00, 0.00, 0.00, 0.00, 0.00, 0.000, 0.000, 0.000, 11:23:58.582, 1561476238582
122, -35053.50, -14975.58, 0.00, 0.00, 0.00, 0.00, 0.00, 0.00, 0.000, 0.000, 0.000, 11:23:58.582, 1561476238582
123, -35649.04, -15551.83, 0.00, 0.00, 0.00, 0.00, 0.00, 0.00, 0.000, 0.000, 0.000, 11:23:58.582, 1561476238582
124, -36409.56, -16281.03, 0.00, 0.00, 0.00, 0.00, 0.00, 0.00, 0.000, 0.000, 0.000, 11:23:58.582, 1561476238582
125, -35954.46, -15844.61, 0.00, 0.00, 0.00, 0.00, 0.00, 0.00, 0.000, 0.000, 0.000, 11:23:58.582, 1561476238582
126, -35146.33, -15068.38, 0.00, 0.00, 0.00, 0.00, 0.00, 0.00, 0.000, 0.000, 0.000, 11:23:58.583, 1561476238583
127, -35504.89, -15409.20, 0.00, 0.00, 0.00, 0.00, 0.00, 0.00, 0.000, 0.000, 0.000, 11:23:58.583, 1561476238583
128, -36309.67, -16183.27, 0.00, 0.00, 0.00, 0.00, 0.00, 0.00, 0.000, 0.000, 0.000, 11:23:58.583, 1561476238583
129, -36023.34, -15913.70, 0.00, 0.00, 0.00, 0.00, 0.00, 0.00, 0.072, -0.038, 1.038, 11:23:58.583, 1561476238583
130, -35200.78, -15125.76, 0.00, 0.00, 0.00, 0.00, 0.00, 0.00, 0.000, 0.000, 0.000, 11:23:58.583, 1561476238583
131, -35390.95, -15304.31, 0.00, 0.00, 0.00, 0.00, 0.00, 0.00, 0.000, 0.000, 0.000, 11:23:58.583, 1561476238583
132, -36241.65, -16120.57, 0.00, 0.00, 0.00, 0.00, 0.00, 0.00, 0.000, 0.000, 0.000, 11:23:58.583, 1561476238583
133, -36183.36, -16072.18, 0.00, 0.00, 0.00, 0.00, 0.00, 0.00, 0.000, 0.000, 0.000, 11:23:58.583, 1561476238583
134, -35325.97, -15243.35, 0.00, 0.00, 0.00, 0.00, 0.00, 0.00, 0.000, 0.000, 0.000, 11:23:58.584, 1561476238584
135, -35275.77, -15182.71, 0.00, 0.00, 0.00, 0.00, 0.00, 0.00, 0.000, 0.000, 0.000, 11:23:58.584, 1561476238584
136, -36136.15, -16000.36, 0.00, 0.00, 0.00, 0.00, 0.00, 0.00, 0.000, 0.000, 0.000, 11:23:58.584, 1561476238584
137, -36319.50, -16180.02, 0.00, 0.00, 0.00, 0.00, 0.00, 0.00, 0.000, 0.000, 0.000, 11:23:58.584, 1561476238584
138, -35491.51, -15390.81, 0.00, 0.00, 0.00, 0.00, 0.00, 0.00, 0.000, 0.000, 0.000, 11:23:58.584, 1561476238584
139, -35215.26, -15130.88, 0.00, 0.00, 0.00, 0.00, 0.00, 0.00, 0.070, -0.038, 1.028, 11:23:58.584, 1561476238584
140, -36015.72, -15895.87, 0.00, 0.00, 0.00, 0.00, 0.00, 0.00, 0.000, 0.000, 0.000, 11:23:58.584, 1561476238584
141, -36410.70, -16270.10, 0.00, 0.00, 0.00, 0.00, 0.00, 0.00, 0.000, 0.000, 0.000, 11:23:58.584, 1561476238584
142, -35647.93, -15541.77, 0.00, 0.00, 0.00, 0.00, 0.00, 0.00, 0.000, 0.000, 0.000, 11:23:58.585, 1561476238585
143, -35112.04, -15032.75, 0.00, 0.00, 0.00, 0.00, 0.00, 0.00, 0.000, 0.000, 0.000, 11:23:58.585, 1561476238585
144, -35812.10, -15707.17, 0.00, 0.00, 0.00, 0.00, 0.00, 0.00, 0.000, 0.000, 0.000, 11:23:58.586, 1561476238586
145, -36425.68, -16296.90, 0.00, 0.00, 0.00, 0.00, 0.00, 0.00, 0.000, 0.000, 0.000, 11:23:58.586, 1561476238586
146, -35828.48, -15720.41, 0.00, 0.00, 0.00, 0.00, 0.00, 0.00, 0.000, 0.000, 0.000, 11:23:58.587, 1561476238587
147, -35197.61, -15105.58, 0.00, 0.00, 0.00, 0.00, 0.00, 0.00, 0.000, 0.000, 0.000, 11:23:58.587, 1561476238587
148, -35734.00, -15619.04, 0.00, 0.00, 0.00, 0.00, 0.00, 0.00, 0.000, 0.000, 0.000, 11:23:58.587, 1561476238587
149, -36446.82, -16313.98, 0.00, 0.00, 0.00, 0.00, 0.00, 0.00, 0.076, -0.040, 1.030, 11:23:58.588, 1561476238588
150, -35986.80, -15878.99, 0.00, 0.00, 0.00, 0.00, 0.00, 0.00, 0.000, 0.000, 0.000, 11:23:58.588, 1561476238588
151, -35200.80, -15127.28, 0.00, 0.00, 0.00, 0.00, 0.00, 0.00, 0.000, 0.000, 0.000, 11:23:58.588, 1561476238588
152, -35578.10, -15485.27, 0.00, 0.00, 0.00, 0.00, 0.00, 0.00, 0.000, 0.000, 0.000, 11:23:58.588, 1561476238588
153, -36382.96, -16254.81, 0.00, 0.00, 0.00, 0.00, 0.00, 0.00, 0.000, 0.000, 0.000, 11:23:58.589, 1561476238589
154, -36106.87, -15985.65, 0.00, 0.00, 0.00, 0.00, 0.00, 0.00, 0.000, 0.000, 0.000, 11:23:58.589, 1561476238589
155, -35273.00, -15182.58, 0.00, 0.00, 0.00, 0.00, 0.00, 0.00, 0.000, 0.000, 0.000, 11:23:58.589, 1561476238589
156, -35450.43, -15348.56, 0.00, 0.00, 0.00, 0.00, 0.00, 0.00, 0.000, 0.000, 0.000, 11:23:58.590, 1561476238590
157, -36317.20, -16181.61, 0.00, 0.00, 0.00, 0.00, 0.00, 0.00, 0.000, 0.000, 0.000, 11:23:58.590, 1561476238590
158, -36242.66, -16119.05, 0.00, 0.00, 0.00, 0.00, 0.00, 0.00, 0.000, 0.000, 0.000, 11:23:58.590, 1561476238590
159, -35344.30, -15250.91, 0.00, 0.00, 0.00, 0.00, 0.00, 0.00, 0.000, 0.000, 0.000, 11:23:58.590, 1561476238590
160, -35309.81, -15215.64, 0.00, 0.00, 0.00, 0.00, 0.00, 0.00, 0.078, -0.042, 1.032, 11:23:58.590, 1561476238590
161, -36212.75, -16087.71, 0.00, 0.00, 0.00, 0.00, 0.00, 0.00, 0.000, 0.000, 0.000, 11:23:58.590, 1561476238590
162, -36410.68, -16275.33, 0.00, 0.00, 0.00, 0.00, 0.00, 0.00, 0.000, 0.000, 0.000, 11:23:58.590, 1561476238590
163, -35570.48, -15463.29, 0.00, 0.00, 0.00, 0.00, 0.00, 0.00, 0.000, 0.000, 0.000, 11:23:58.590, 1561476238590
164, -35280.37, -15184.08, 0.00, 0.00, 0.00, 0.00, 0.00, 0.00, 0.000, 0.000, 0.000, 11:23:58.591, 1561476238591
165, -36086.15, -15959.84, 0.00, 0.00, 0.00, 0.00, 0.00, 0.00, 0.000, 0.000, 0.000, 11:23:58.591, 1561476238591
166, -36499.41, -16352.00, 0.00, 0.00, 0.00, 0.00, 0.00, 0.00, 0.000, 0.000, 0.000, 11:23:58.591, 1561476238591
167, -35743.34, -15631.45, 0.00, 0.00, 0.00, 0.00, 0.00, 0.00, 0.000, 0.000, 0.000, 11:23:58.591, 1561476238591
168, -35222.95, -15136.06, 0.00, 0.00, 0.00, 0.00, 0.00, 0.00, 0.000, 0.000, 0.000, 11:23:58.591, 1561476238591
169, -35896.45, -15785.83, 0.00, 0.00, 0.00, 0.00, 0.00, 0.00, 0.000, 0.000, 0.000, 11:23:58.591, 1561476238591
170, -36491.25, -16357.27, 0.00, 0.00, 0.00, 0.00, 0.00, 0.00, 0.078, -0.040, 1.036, 11:23:58.591, 1561476238591
171, -35887.04, -15778.32, 0.00, 0.00, 0.00, 0.00, 0.00, 0.00, 0.000, 0.000, 0.000, 11:23:58.591, 1561476238591
172, -35227.62, -15145.23, 0.00, 0.00, 0.00, 0.00, 0.00, 0.00, 0.000, 0.000, 0.000, 11:23:58.591, 1561476238591
173, -35779.22, -15672.30, 0.00, 0.00, 0.00, 0.00, 0.00, 0.00, 0.000, 0.000, 0.000, 11:23:58.591, 1561476238591
174, -36519.04, -16378.04, 0.00, 0.00, 0.00, 0.00, 0.00, 0.00, 0.000, 0.000, 0.000, 11:23:58.591, 1561476238591
175, -36051.73, -15930.00, 0.00, 0.00, 0.00, 0.00, 0.00, 0.00, 0.000, 0.000, 0.000, 11:23:58.592, 1561476238592
176, -35250.76, -15161.01, 0.00, 0.00, 0.00, 0.00, 0.00, 0.00, 0.000, 0.000, 0.000, 11:23:58.592, 1561476238592
177, -35613.79, -15513.36, 0.00, 0.00, 0.00, 0.00, 0.00, 0.00, 0.000, 0.000, 0.000, 11:23:58.592, 1561476238592
178, -36467.47, -16331.10, 0.00, 0.00, 0.00, 0.00, 0.00, 0.00, 0.000, 0.000, 0.000, 11:23:58.592, 1561476238592
179, -36212.24, -16081.39, 0.00, 0.00, 0.00, 0.00, 0.00, 0.00, 0.000, 0.000, 0.000, 11:23:58.592, 1561476238592
180, -35365.29, -15270.02, 0.00, 0.00, 0.00, 0.00, 0.00, 0.00, 0.076, -0.036, 1.038, 11:23:58.592, 1561476238592
181, -35522.33, -15421.94, 0.00, 0.00, 0.00, 0.00, 0.00, 0.00, 0.000, 0.000, 0.000, 11:23:58.592, 1561476238592
182, -36377.46, -16243.71, 0.00, 0.00, 0.00, 0.00, 0.00, 0.00, 0.000, 0.000, 0.000, 11:23:58.592, 1561476238592
183, -36318.41, -16182.93, 0.00, 0.00, 0.00, 0.00, 0.00, 0.00, 0.000, 0.000, 0.000, 11:23:58.593, 1561476238593
184, -35444.14, -15343.91, 0.00, 0.00, 0.00, 0.00, 0.00, 0.00, 0.000, 0.000, 0.000, 11:23:58.593, 1561476238593
185, -35404.54, -15308.35, 0.00, 0.00, 0.00, 0.00, 0.00, 0.00, 0.000, 0.000, 0.000, 11:23:58.593, 1561476238593
186, -36267.16, -16133.76, 0.00, 0.00, 0.00, 0.00, 0.00, 0.00, 0.000, 0.000, 0.000, 11:23:58.593, 1561476238593
187, -36439.46, -16296.92, 0.00, 0.00, 0.00, 0.00, 0.00, 0.00, 0.000, 0.000, 0.000, 11:23:58.593, 1561476238593
188, -35614.80, -15502.05, 0.00, 0.00, 0.00, 0.00, 0.00, 0.00, 0.000, 0.000, 0.000, 11:23:58.593, 1561476238593
189, -35315.35, -15222.23, 0.00, 0.00, 0.00, 0.00, 0.00, 0.00, 0.000, 0.000, 0.000, 11:23:58.593, 1561476238593
190, -36112.35, -15988.00, 0.00, 0.00, 0.00, 0.00, 0.00, 0.00, 0.076, -0.038, 1.034, 11:23:58.593, 1561476238593
191, -36500.71, -16368.67, 0.00, 0.00, 0.00, 0.00, 0.00, 0.00, 0.000, 0.000, 0.000, 11:23:58.593, 1561476238593
192, -35744.13, -15642.29, 0.00, 0.00, 0.00, 0.00, 0.00, 0.00, 0.000, 0.000, 0.000, 11:23:58.594, 1561476238594
193, -35241.21, -15152.63, 0.00, 0.00, 0.00, 0.00, 0.00, 0.00, 0.000, 0.000, 0.000, 11:23:58.594, 1561476238594
194, -35952.60, -15837.15, 0.00, 0.00, 0.00, 0.00, 0.00, 0.00, 0.000, 0.000, 0.000, 11:23:58.594, 1561476238594
195, -36547.58, -16408.13, 0.00, 0.00, 0.00, 0.00, 0.00, 0.00, 0.000, 0.000, 0.000, 11:23:58.594, 1561476238594
196, -35915.56, -15793.88, 0.00, 0.00, 0.00, 0.00, 0.00, 0.00, 0.000, 0.000, 0.000, 11:23:58.594, 1561476238594
197, -35261.86, -15171.45, 0.00, 0.00, 0.00, 0.00, 0.00, 0.00, 0.000, 0.000, 0.000, 11:23:58.594, 1561476238594
198, -35838.43, -15727.92, 0.00, 0.00, 0.00, 0.00, 0.00, 0.00, 0.000, 0.000, 0.000, 11:23:58.594, 1561476238594
199, -36564.03, -16421.63, 0.00, 0.00, 0.00, 0.00, 0.00, 0.00, 0.000, 0.000, 0.000, 11:23:58.594, 1561476238594
200, -36103.86, -15971.91, 0.00, 0.00, 0.00, 0.00, 0.00, 0.00, 0.074, -0.038, 1.038, 11:23:58.595, 1561476238595
201, -35316.94, -15213.20, 0.00, 0.00, 0.00, 0.00, 0.00, 0.00, 0.000, 0.000, 0.000, 11:23:58.595, 1561476238595
202, -35685.03, -15573.24, 0.00, 0.00, 0.00, 0.00, 0.00, 0.00, 0.000, 0.000, 0.000, 11:23:58.595, 1561476238595
203, -36512.02, -16365.50, 0.00, 0.00, 0.00, 0.00, 0.00, 0.00, 0.000, 0.000, 0.000, 11:23:58.595, 1561476238595
204, -36250.80, -16109.91, 0.00, 0.00, 0.00, 0.00, 0.00, 0.00, 0.000, 0.000, 0.000, 11:23:58.595, 1561476238595
205, -35381.27, -15278.80, 0.00, 0.00, 0.00, 0.00, 0.00, 0.00, 0.000, 0.000, 0.000, 11:23:58.595, 1561476238595
206, -35546.00, -15433.14, 0.00, 0.00, 0.00, 0.00, 0.00, 0.00, 0.000, 0.000, 0.000, 11:23:58.595, 1561476238595
207, -36421.14, -16275.51, 0.00, 0.00, 0.00, 0.00, 0.00, 0.00, 0.000, 0.000, 0.000, 11:23:58.595, 1561476238595
208, -36366.71, -16224.15, 0.00, 0.00, 0.00, 0.00, 0.00, 0.00, 0.000, 0.000, 0.000, 11:23:58.596, 1561476238596
209, -35481.71, -15375.85, 0.00, 0.00, 0.00, 0.00, 0.00, 0.00, 0.000, 0.000, 0.000, 11:23:58.596, 1561476238596
210, -35421.86, -15324.65, 0.00, 0.00, 0.00, 0.00, 0.00, 0.00, 0.074, -0.034, 1.036, 11:23:58.596, 1561476238596
211, -36302.09, -16176.63, 0.00, 0.00, 0.00, 0.00, 0.00, 0.00, 0.000, 0.000, 0.000, 11:23:58.596, 1561476238596
212, -36507.19, -16372.72, 0.00, 0.00, 0.00, 0.00, 0.00, 0.00, 0.000, 0.000, 0.000, 11:23:58.596, 1561476238596
213, -35656.42, -15557.42, 0.00, 0.00, 0.00, 0.00, 0.00, 0.00, 0.000, 0.000, 0.000, 11:23:58.597, 1561476238597
214, -35343.85, -15250.13, 0.00, 0.00, 0.00, 0.00, 0.00, 0.00, 0.000, 0.000, 0.000, 11:23:58.597, 1561476238597
215, -36156.72, -16027.59, 0.00, 0.00, 0.00, 0.00, 0.00, 0.00, 0.000, 0.000, 0.000, 11:23:58.597, 1561476238597
216, -36573.58, -16428.89, 0.00, 0.00, 0.00, 0.00, 0.00, 0.00, 0.000, 0.000, 0.000, 11:23:58.597, 1561476238597
217, -35818.87, -15711.08, 0.00, 0.00, 0.00, 0.00, 0.00, 0.00, 0.000, 0.000, 0.000, 11:23:58.597, 1561476238597
218, -35308.11, -15217.51, 0.00, 0.00, 0.00, 0.00, 0.00, 0.00, 0.000, 0.000, 0.000, 11:23:58.597, 1561476238597
219, -35995.05, -15873.52, 0.00, 0.00, 0.00, 0.00, 0.00, 0.00, 0.000, 0.000, 0.000, 11:23:58.598, 1561476238598
220, -36607.17, -16469.10, 0.00, 0.00, 0.00, 0.00, 0.00, 0.00, 0.000, 0.000, 0.000, 11:23:58.598, 1561476238598
221, -35967.78, -15856.30, 0.00, 0.00, 0.00, 0.00, 0.00, 0.00, 0.072, -0.034, 1.044, 11:23:58.598, 1561476238598
222, -35296.29, -15208.55, 0.00, 0.00, 0.00, 0.00, 0.00, 0.00, 0.000, 0.000, 0.000, 11:23:58.598, 1561476238598
223, -35857.14, -15745.78, 0.00, 0.00, 0.00, 0.00, 0.00, 0.00, 0.000, 0.000, 0.000, 11:23:58.598, 1561476238598
224, -36594.72, -16462.30, 0.00, 0.00, 0.00, 0.00, 0.00, 0.00, 0.000, 0.000, 0.000, 11:23:58.598, 1561476238598
225, -36138.99, -16018.24, 0.00, 0.00, 0.00, 0.00, 0.00, 0.00, 0.000, 0.000, 0.000, 11:23:58.599, 1561476238599
226, -35351.76, -15256.63, 0.00, 0.00, 0.00, 0.00, 0.00, 0.00, 0.000, 0.000, 0.000, 11:23:58.599, 1561476238599
227, -35709.61, -15601.65, 0.00, 0.00, 0.00, 0.00, 0.00, 0.00, 0.000, 0.000, 0.000, 11:23:58.599, 1561476238599
228, -36546.82, -16404.62, 0.00, 0.00, 0.00, 0.00, 0.00, 0.00, 0.000, 0.000, 0.000, 11:23:58.599, 1561476238599
229, -36259.73, -16131.52, 0.00, 0.00, 0.00, 0.00, 0.00, 0.00, 0.000, 0.000, 0.000, 11:23:58.599, 1561476238599
230, -35393.16, -15297.40, 0.00, 0.00, 0.00, 0.00, 0.00, 0.00, 0.000, 0.000, 0.000, 11:23:58.599, 1561476238599
231, -35590.39, -15484.89, 0.00, 0.00, 0.00, 0.00, 0.00, 0.00, 0.068, -0.034, 1.032, 11:23:58.600, 1561476238600
232, -36471.25, -16335.62, 0.00, 0.00, 0.00, 0.00, 0.00, 0.00, 0.000, 0.000, 0.000, 11:23:58.600, 1561476238600
233, -36421.54, -16285.79, 0.00, 0.00, 0.00, 0.00, 0.00, 0.00, 0.000, 0.000, 0.000, 11:23:58.600, 1561476238600
234, -35553.15, -15447.13, 0.00, 0.00, 0.00, 0.00, 0.00, 0.00, 0.000, 0.000, 0.000, 11:23:58.600, 1561476238600
235, -35472.46, -15374.58, 0.00, 0.00, 0.00, 0.00, 0.00, 0.00, 0.000, 0.000, 0.000, 11:23:58.600, 1561476238600
236, -36320.40, -16190.71, 0.00, 0.00, 0.00, 0.00, 0.00, 0.00, 0.000, 0.000, 0.000, 11:23:58.600, 1561476238600
237, -36519.15, -16376.45, 0.00, 0.00, 0.00, 0.00, 0.00, 0.00, 0.000, 0.000, 0.000, 11:23:58.600, 1561476238600
238, -35689.72, -15577.56, 0.00, 0.00, 0.00, 0.00, 0.00, 0.00, 0.000, 0.000, 0.000, 11:23:58.600, 1561476238600
239, -35378.99, -15281.33, 0.00, 0.00, 0.00, 0.00, 0.00, 0.00, 0.000, 0.000, 0.000, 11:23:58.600, 1561476238600
240, -36141.81, -16014.40, 0.00, 0.00, 0.00, 0.00, 0.00, 0.00, 0.000, 0.000, 0.000, 11:23:59.066, 1561476239066
241, -36564.91, -16429.11, 0.00, 0.00, 0.00, 0.00, 0.00, 0.00, 0.070, -0.038, 1.032, 11:23:59.067, 1561476239067
242, -35844.80, -15740.52, 0.00, 0.00, 0.00, 0.00, 0.00, 0.00, 0.000, 0.000, 0.000, 11:23:59.068, 1561476239068
243, -35365.53, -15272.92, 0.00, 0.00, 0.00, 0.00, 0.00, 0.00, 0.000, 0.000, 0.000, 11:23:59.068, 1561476239068
244, -36061.45, -15935.47, 0.00, 0.00, 0.00, 0.00, 0.00, 0.00, 0.000, 0.000, 0.000, 11:23:59.069, 1561476239069
245, -36677.29, -16525.36, 0.00, 0.00, 0.00, 0.00, 0.00, 0.00, 0.000, 0.000, 0.000, 11:23:59.069, 1561476239069
246, -36046.21, -15926.60, 0.00, 0.00, 0.00, 0.00, 0.00, 0.00, 0.000, 0.000, 0.000, 11:23:59.070, 1561476239070
247, -35356.41, -15262.13, 0.00, 0.00, 0.00, 0.00, 0.00, 0.00, 0.000, 0.000, 0.000, 11:23:59.070, 1561476239070
248, -35888.54, -15778.59, 0.00, 0.00, 0.00, 0.00, 0.00, 0.00, 0.000, 0.000, 0.000, 11:23:59.070, 1561476239070
249, -36629.52, -16488.19, 0.00, 0.00, 0.00, 0.00, 0.00, 0.00, 0.000, 0.000, 0.000, 11:23:59.070, 1561476239070
250, -36202.92, -16068.74, 0.00, 0.00, 0.00, 0.00, 0.00, 0.00, 0.000, 0.000, 0.000, 11:23:59.070, 1561476239070
251, -35434.04, -15331.58, 0.00, 0.00, 0.00, 0.00, 0.00, 0.00, 0.074, -0.038, 1.030, 11:23:59.070, 1561476239070
252, -35769.92, -15664.71, 0.00, 0.00, 0.00, 0.00, 0.00, 0.00, 0.000, 0.000, 0.000, 11:23:59.070, 1561476239070
253, -36579.21, -16450.06, 0.00, 0.00, 0.00, 0.00, 0.00, 0.00, 0.000, 0.000, 0.000, 11:23:59.071, 1561476239071
254, -36308.08, -16192.97, 0.00, 0.00, 0.00, 0.00, 0.00, 0.00, 0.000, 0.000, 0.000, 11:23:59.071, 1561476239071
255, -35462.52, -15369.08, 0.00, 0.00, 0.00, 0.00, 0.00, 0.00, 0.000, 0.000, 0.000, 11:23:59.071, 1561476239071
0, -35635.52, -15523.04, 0.00, 0.00, 0.00, 0.00, 0.00, 0.00, 0.000, 0.000, 0.000, 11:23:59.071, 1561476239071
1, -36542.57, -16387.20, 0.00, 0.00, 0.00, 0.00, 0.00, 0.00, 0.000, 0.000, 0.000, 11:23:59.071, 1561476239071
2, -36510.03, -16356.54, 0.00, 0.00, 0.00, 0.00, 0.00, 0.00, 0.000, 0.000, 0.000, 11:23:59.071, 1561476239071
3, -35651.21, -15535.78, 0.00, 0.00, 0.00, 0.00, 0.00, 0.00, 0.000, 0.000, 0.000, 11:23:59.071, 1561476239071
4, -35573.96, -15474.00, 0.00, 0.00, 0.00, 0.00, 0.00, 0.00, 0.000, 0.000, 0.000, 11:23:59.071, 1561476239071
5, -36392.02, -16267.98, 0.00, 0.00, 0.00, 0.00, 0.00, 0.00, 0.068, -0.040, 1.028, 11:23:59.072, 1561476239072
6, -36555.02, -16415.88, 0.00, 0.00, 0.00, 0.00, 0.00, 0.00, 0.000, 0.000, 0.000, 11:23:59.072, 1561476239072
7, -35718.98, -15603.10, 0.00, 0.00, 0.00, 0.00, 0.00, 0.00, 0.000, 0.000, 0.000, 11:23:59.072, 1561476239072
8, -35434.75, -15331.11, 0.00, 0.00, 0.00, 0.00, 0.00, 0.00, 0.000, 0.000, 0.000, 11:23:59.072, 1561476239072
9, -36253.46, -16114.80, 0.00, 0.00, 0.00, 0.00, 0.00, 0.00, 0.000, 0.000, 0.000, 11:23:59.072, 1561476239072
10, -36650.24, -16501.20, 0.00, 0.00, 0.00, 0.00, 0.00, 0.00, 0.000, 0.000, 0.000, 11:23:59.072, 1561476239072
11, -35907.29, -15794.08, 0.00, 0.00, 0.00, 0.00, 0.00, 0.00, 0.000, 0.000, 0.000, 11:23:59.072, 1561476239072
12, -35409.90, -15310.99, 0.00, 0.00, 0.00, 0.00, 0.00, 0.00, 0.000, 0.000, 0.000, 11:23:59.072, 1561476239072
13, -36115.28, -15983.02, 0.00, 0.00, 0.00, 0.00, 0.00, 0.00, 0.000, 0.000, 0.000, 11:23:59.073, 1561476239073
14, -36708.05, -16560.32, 0.00, 0.00, 0.00, 0.00, 0.00, 0.00, 0.000, 0.000, 0.000, 11:23:59.073, 1561476239073
15, -36085.32, -15967.44, 0.00, 0.00, 0.00, 0.00, 0.00, 0.00, 0.068, -0.040, 1.030, 11:23:59.073, 1561476239073
16, -35436.01, -15332.22, 0.00, 0.00, 0.00, 0.00, 0.00, 0.00, 0.000, 0.000, 0.000, 11:23:59.073, 1561476239073
17, -35990.53, -15860.66, 0.00, 0.00, 0.00, 0.00, 0.00, 0.00, 0.000, 0.000, 0.000, 11:23:59.073, 1561476239073
18, -36731.67, -16573.73, 0.00, 0.00, 0.00, 0.00, 0.00, 0.00, 0.000, 0.000, 0.000, 11:23:59.073, 1561476239073
19, -36262.62, -16124.44, 0.00, 0.00, 0.00, 0.00, 0.00, 0.00, 0.000, 0.000, 0.000, 11:23:59.073, 1561476239073
20, -35476.04, -15367.41, 0.00, 0.00, 0.00, 0.00, 0.00, 0.00, 0.000, 0.000, 0.000, 11:23:59.073, 1561476239073
21, -35793.37, -15676.02, 0.00, 0.00, 0.00, 0.00, 0.00, 0.00, 0.000, 0.000, 0.000, 11:23:59.073, 1561476239073
22, -36604.27, -16454.84, 0.00, 0.00, 0.00, 0.00, 0.00, 0.00, 0.000, 0.000, 0.000, 11:23:59.074, 1561476239074
23, -36364.36, -16228.62, 0.00, 0.00, 0.00, 0.00, 0.00, 0.00, 0.000, 0.000, 0.000, 11:23:59.074, 1561476239074
24, -35536.72, -15441.97, 0.00, 0.00, 0.00, 0.00, 0.00, 0.00, 0.000, 0.000, 0.000, 11:23:59.074, 1561476239074
25, -35711.47, -15617.10, 0.00, 0.00, 0.00, 0.00, 0.00, 0.00, 0.000, 0.000, 0.000, 11:23:59.074, 1561476239074
26, -36540.12, -16409.64, 0.00, 0.00, 0.00, 0.00, 0.00, 0.00, 0.070, -0.042, 1.030, 11:23:59.074, 1561476239074
27, -36480.44, -16344.42, 0.00, 0.00, 0.00, 0.00, 0.00, 0.00, 0.000, 0.000, 0.000, 11:23:59.074, 1561476239074
28, -35615.20, -15510.84, 0.00, 0.00, 0.00, 0.00, 0.00, 0.00, 0.000, 0.000, 0.000, 11:23:59.074, 1561476239074
29, -35558.67, -15449.55, 0.00, 0.00, 0.00, 0.00, 0.00, 0.00, 0.000, 0.000, 0.000, 11:23:59.074, 1561476239074
30, -36434.59, -16290.73, 0.00, 0.00, 0.00, 0.00, 0.00, 0.00, 0.000, 0.000, 0.000, 11:23:59.074, 1561476239074
31, -36632.14, -16476.50, 0.00, 0.00, 0.00, 0.00, 0.00, 0.00, 0.000, 0.000, 0.000, 11:23:59.075, 1561476239075
32, -35816.97, -15693.70, 0.00, 0.00, 0.00, 0.00, 0.00, 0.00, 0.000, 0.000, 0.000, 11:23:59.075, 1561476239075
33, -35515.76, -15400.28, 0.00, 0.00, 0.00, 0.00, 0.00, 0.00, 0.000, 0.000, 0.000, 11:23:59.075, 1561476239075
34, -36311.73, -16159.24, 0.00, 0.00, 0.00, 0.00, 0.00, 0.00, 0.000, 0.000, 0.000, 11:23:59.075, 1561476239075
35, -36745.73, -16581.91, 0.00, 0.00, 0.00, 0.00, 0.00, 0.00, 0.000, 0.000, 0.000, 11:23:59.075, 1561476239075
36, -35989.68, -15860.13, 0.00, 0.00, 0.00, 0.00, 0.00, 0.00, 0.076, -0.038, 1.026, 11:23:59.075, 1561476239075
37, -35478.72, -15367.09, 0.00, 0.00, 0.00, 0.00, 0.00, 0.00, 0.000, 0.000, 0.000, 11:23:59.075, 1561476239075
38, -36150.30, -16009.66, 0.00, 0.00, 0.00, 0.00, 0.00, 0.00, 0.000, 0.000, 0.000, 11:23:59.076, 1561476239076
39, -36728.12, -16563.20, 0.00, 0.00, 0.00, 0.00, 0.00, 0.00, 0.000, 0.000, 0.000, 11:23:59.077, 1561476239077
40, -36101.89, -15967.68, 0.00, 0.00, 0.00, 0.00, 0.00, 0.00, 0.000, 0.000, 0.000, 11:23:59.078, 1561476239078
41, -35494.84, -15389.98, 0.00, 0.00, 0.00, 0.00, 0.00, 0.00, 0.000, 0.000, 0.000, 11:23:59.078, 1561476239078
42, -36077.66, -15943.59, 0.00, 0.00, 0.00, 0.00, 0.00, 0.00, 0.000, 0.000, 0.000, 11:23:59.078, 1561476239078
43, -36805.48, -16634.01, 0.00, 0.00, 0.00, 0.00, 0.00, 0.00, 0.000, 0.000, 0.000, 11:23:59.078, 1561476239078
44, -36342.46, -16189.19, 0.00, 0.00, 0.00, 0.00, 0.00, 0.00, 0.000, 0.000, 0.000, 11:23:59.079, 1561476239079
45, -35526.60, -15408.80, 0.00, 0.00, 0.00, 0.00, 0.00, 0.00, 0.000, 0.000, 0.000, 11:23:59.079, 1561476239079
46, -35888.16, -15760.86, 0.00, 0.00, 0.00, 0.00, 0.00, 0.00, 0.078, -0.042, 1.028, 11:23:59.079, 1561476239079
47, -36721.70, -16566.73, 0.00, 0.00, 0.00, 0.00, 0.00, 0.00, 0.000, 0.000, 0.000, 11:23:59.079, 1561476239079
48, -36445.66, -16304.12, 0.00, 0.00, 0.00, 0.00, 0.00, 0.00, 0.000, 0.000, 0.000, 11:23:59.079, 1561476239079
49, -35561.82, -15454.58, 0.00, 0.00, 0.00, 0.00, 0.00, 0.00, 0.000, 0.000, 0.000, 11:23:59.079, 1561476239079
50, -35747.88, -15627.60, 0.00, 0.00, 0.00, 0.00, 0.00, 0.00, 0.000, 0.000, 0.000, 11:23:59.079, 1561476239079
51, -36664.82, -16503.70, 0.00, 0.00, 0.00, 0.00, 0.00, 0.00, 0.000, 0.000, 0.000, 11:23:59.079, 1561476239079
52, -36607.66, -16454.62, 0.00, 0.00, 0.00, 0.00, 0.00, 0.00, 0.000, 0.000, 0.000, 11:23:59.080, 1561476239080
53, -35753.87, -15637.57, 0.00, 0.00, 0.00, 0.00, 0.00, 0.00, 0.000, 0.000, 0.000, 11:23:59.080, 1561476239080
54, -35694.30, -15576.77, 0.00, 0.00, 0.00, 0.00, 0.00, 0.00, 0.000, 0.000, 0.000, 11:23:59.080, 1561476239080
55, -36523.93, -16373.10, 0.00, 0.00, 0.00, 0.00, 0.00, 0.00, 0.000, 0.000, 0.000, 11:23:59.080, 1561476239080
56, -36708.13, -16548.70, 0.00, 0.00, 0.00, 0.00, 0.00, 0.00, 0.070, -0.040, 1.032, 11:23:59.080, 1561476239080
57, -35866.84, -15741.71, 0.00, 0.00, 0.00, 0.00, 0.00, 0.00, 0.000, 0.000, 0.000, 11:23:59.080, 1561476239080
58, -35557.54, -15440.38, 0.00, 0.00, 0.00, 0.00, 0.00, 0.00, 0.000, 0.000, 0.000, 11:23:59.080, 1561476239080
59, -36375.38, -16226.07, 0.00, 0.00, 0.00, 0.00, 0.00, 0.00, 0.000, 0.000, 0.000, 11:23:59.081, 1561476239081
60, -36787.75, -16620.55, 0.00, 0.00, 0.00, 0.00, 0.00, 0.00, 0.000, 0.000, 0.000, 11:23:59.081, 1561476239081
61, -36054.12, -15916.01, 0.00, 0.00, 0.00, 0.00, 0.00, 0.00, 0.000, 0.000, 0.000, 11:23:59.081, 1561476239081
62, -35530.71, -15410.61, 0.00, 0.00, 0.00, 0.00, 0.00, 0.00, 0.000, 0.000, 0.000, 11:23:59.081, 1561476239081
63, -36197.91, -16057.07, 0.00, 0.00, 0.00, 0.00, 0.00, 0.00, 0.000, 0.000, 0.000, 11:23:59.081, 1561476239081
64, -36784.06, -16627.82, 0.00, 0.00, 0.00, 0.00, 0.00, 0.00, 0.000, 0.000, 0.000, 11:23:59.081, 1561476239081
65, -36160.58, -16026.25, 0.00, 0.00, 0.00, 0.00, 0.00, 0.00, 0.000, 0.000, 0.000, 11:23:59.109, 1561476239109
66, -35521.61, -15406.36, 0.00, 0.00, 0.00, 0.00, 0.00, 0.00, 0.068, -0.038, 1.030, 11:23:59.109, 1561476239109
67, -36114.92, -15969.14, 0.00, 0.00, 0.00, 0.00, 0.00, 0.00, 0.000, 0.000, 0.000, 11:23:59.110, 1561476239110
68, -36849.42, -16673.04, 0.00, 0.00, 0.00, 0.00, 0.00, 0.00, 0.000, 0.000, 0.000, 11:23:59.110, 1561476239110
69, -36390.45, -16235.21, 0.00, 0.00, 0.00, 0.00, 0.00, 0.00, 0.000, 0.000, 0.000, 11:23:59.111, 1561476239111
70, -35570.68, -15453.46, 0.00, 0.00, 0.00, 0.00, 0.00, 0.00, 0.000, 0.000, 0.000, 11:23:59.111, 1561476239111
71, -35926.96, -15798.93, 0.00, 0.00, 0.00, 0.00, 0.00, 0.00, 0.000, 0.000, 0.000, 11:23:59.111, 1561476239111
72, -36767.32, -16603.93, 0.00, 0.00, 0.00, 0.00, 0.00, 0.00, 0.000, 0.000, 0.000, 11:23:59.111, 1561476239111
73, -36511.11, -16356.67, 0.00, 0.00, 0.00, 0.00, 0.00, 0.00, 0.000, 0.000, 0.000, 11:23:59.111, 1561476239111
74, -35653.58, -15536.52, 0.00, 0.00, 0.00, 0.00, 0.00, 0.00, 0.000, 0.000, 0.000, 11:23:59.111, 1561476239111
75, -35796.43, -15681.33, 0.00, 0.00, 0.00, 0.00, 0.00, 0.00, 0.000, 0.000, 0.000, 11:23:59.111, 1561476239111
76, -36654.89, -16503.95, 0.00, 0.00, 0.00, 0.00, 0.00, 0.00, 0.000, 0.000, 0.000, 11:23:59.111, 1561476239111
77, -36620.14, -16457.34, 0.00, 0.00, 0.00, 0.00, 0.00, 0.00, 0.066, -0.036, 1.030, 11:23:59.111, 1561476239111
78, -35737.40, -15607.78, 0.00, 0.00, 0.00, 0.00, 0.00, 0.00, 0.000, 0.000, 0.000, 11:23:59.112, 1561476239112
79, -35660.62, -15541.82, 0.00, 0.00, 0.00, 0.00, 0.00, 0.00, 0.000, 0.000, 0.000, 11:23:59.112, 1561476239112
80, -36527.69, -16377.61, 0.00, 0.00, 0.00, 0.00, 0.00, 0.00, 0.000, 0.000, 0.000, 11:23:59.112, 1561476239112
81, -36757.38, -16593.40, 0.00, 0.00, 0.00, 0.00, 0.00, 0.00, 0.000, 0.000, 0.000, 11:23:59.112, 1561476239112
82, -35935.52, -15804.61, 0.00, 0.00, 0.00, 0.00, 0.00, 0.00, 0.000, 0.000, 0.000, 11:23:59.112, 1561476239112
83, -35623.70, -15511.57, 0.00, 0.00, 0.00, 0.00, 0.00, 0.00, 0.000, 0.000, 0.000, 11:23:59.112, 1561476239112
84, -36401.47, -16258.68, 0.00, 0.00, 0.00, 0.00, 0.00, 0.00, 0.000, 0.000, 0.000, 11:23:59.112, 1561476239112
85, -36798.39, -16639.78, 0.00, 0.00, 0.00, 0.00, 0.00, 0.00, 0.000, 0.000, 0.000, 11:23:59.112, 1561476239112
86, -36055.64, -15924.63, 0.00, 0.00, 0.00, 0.00, 0.00, 0.00, 0.000, 0.000, 0.000, 11:23:59.112, 1561476239112
87, -35550.43, -15433.86, 0.00, 0.00, 0.00, 0.00, 0.00, 0.00, 0.072, -0.038, 1.028, 11:23:59.113, 1561476239113
88, -36267.09, -16119.50, 0.00, 0.00, 0.00, 0.00, 0.00, 0.00, 0.000, 0.000, 0.000, 11:23:59.113, 1561476239113
89, -36874.05, -16700.31, 0.00, 0.00, 0.00, 0.00, 0.00, 0.00, 0.000, 0.000, 0.000, 11:23:59.113, 1561476239113
90, -36271.16, -16112.86, 0.00, 0.00, 0.00, 0.00, 0.00, 0.00, 0.000, 0.000, 0.000, 11:23:59.113, 1561476239113
91, -35578.93, -15447.87, 0.00, 0.00, 0.00, 0.00, 0.00, 0.00, 0.000, 0.000, 0.000, 11:23:59.113, 1561476239113
92, -36088.43, -15943.10, 0.00, 0.00, 0.00, 0.00, 0.00, 0.00, 0.000, 0.000, 0.000, 11:23:59.113, 1561476239113
93, -36845.91, -16675.36, 0.00, 0.00, 0.00, 0.00, 0.00, 0.00, 0.000, 0.000, 0.000, 11:23:59.113, 1561476239113
94, -36408.18, -16251.93, 0.00, 0.00, 0.00, 0.00, 0.00, 0.00, 0.000, 0.000, 0.000, 11:23:59.113, 1561476239113
95, -35640.79, -15515.15, 0.00, 0.00, 0.00, 0.00, 0.00, 0.00, 0.000, 0.000, 0.000, 11:23:59.113, 1561476239113
96, -36010.16, -15874.92, 0.00, 0.00, 0.00, 0.00, 0.00, 0.00, 0.000, 0.000, 0.000, 11:23:59.113, 1561476239113
97, -36821.84, -16650.30, 0.00, 0.00, 0.00, 0.00, 0.00, 0.00, 0.068, -0.042, 1.026, 11:23:59.113, 1561476239113
98, -36546.06, -16381.77, 0.00, 0.00, 0.00, 0.00, 0.00, 0.00, 0.000, 0.000, 0.000, 11:23:59.114, 1561476239114
99, -35683.22, -15547.81, 0.00, 0.00, 0.00, 0.00, 0.00, 0.00, 0.000, 0.000, 0.000, 11:23:59.114, 1561476239114
100, -35828.91, -15688.17, 0.00, 0.00, 0.00, 0.00, 0.00, 0.00, 0.000, 0.000, 0.000, 11:23:59.114, 1561476239114
101, -36675.39, -16503.68, 0.00, 0.00, 0.00, 0.00, 0.00, 0.00, 0.000, 0.000, 0.000, 11:23:59.114, 1561476239114
102, -36658.67, -16491.88, 0.00, 0.00, 0.00, 0.00, 0.00, 0.00, 0.000, 0.000, 0.000, 11:23:59.114, 1561476239114
103, -35790.06, -15665.98, 0.00, 0.00, 0.00, 0.00, 0.00, 0.00, 0.000, 0.000, 0.000, 11:23:59.114, 1561476239114
104, -35709.04, -15598.41, 0.00, 0.00, 0.00, 0.00, 0.00, 0.00, 0.000, 0.000, 0.000, 11:23:59.542, 1561476239542
105, -36579.90, -16430.52, 0.00, 0.00, 0.00, 0.00, 0.00, 0.00, 0.000, 0.000, 0.000, 11:23:59.543, 1561476239543
106, -36786.86, -16617.83, 0.00, 0.00, 0.00, 0.00, 0.00, 0.00, 0.000, 0.000, 0.000, 11:23:59.543, 1561476239543
107, -35976.83, -15827.45, 0.00, 0.00, 0.00, 0.00, 0.00, 0.00, 0.068, -0.038, 1.026, 11:23:59.543, 1561476239543
108, -35653.63, -15510.37, 0.00, 0.00, 0.00, 0.00, 0.00, 0.00, 0.000, 0.000, 0.000, 11:23:59.544, 1561476239544
109, -36435.42, -16264.98, 0.00, 0.00, 0.00, 0.00, 0.00, 0.00, 0.000, 0.000, 0.000, 11:23:59.544, 1561476239544
110, -36850.00, -16667.83, 0.00, 0.00, 0.00, 0.00, 0.00, 0.00, 0.000, 0.000, 0.000, 11:23:59.544, 1561476239544
111, -36122.12, -15967.55, 0.00, 0.00, 0.00, 0.00, 0.00, 0.00, 0.000, 0.000, 0.000, 11:23:59.545, 1561476239545
112, -35626.82, -15483.66, 0.00, 0.00, 0.00, 0.00, 0.00, 0.00, 0.000, 0.000, 0.000, 11:23:59.545, 1561476239545
113, -36284.90, -16119.16, 0.00, 0.00, 0.00, 0.00, 0.00, 0.00, 0.000, 0.000, 0.000, 11:23:59.545, 1561476239545
114, -36871.30, -16684.44, 0.00, 0.00, 0.00, 0.00, 0.00, 0.00, 0.000, 0.000, 0.000, 11:23:59.545, 1561476239545
115, -36239.24, -16082.42, 0.00, 0.00, 0.00, 0.00, 0.00, 0.00, 0.000, 0.000, 0.000, 11:23:59.545, 1561476239545
116, -35560.93, -15435.20, 0.00, 0.00, 0.00, 0.00, 0.00, 0.00, 0.000, 0.000, 0.000, 11:23:59.545, 1561476239545
117, -36123.97, -15971.75, 0.00, 0.00, 0.00, 0.00, 0.00, 0.00, 0.066, -0.044, 1.030, 11:23:59.545, 1561476239545
118, -36883.53, -16693.89, 0.00, 0.00, 0.00, 0.00, 0.00, 0.00, 0.000, 0.000, 0.000, 11:23:59.545, 1561476239545
119, -36430.64, -16272.70, 0.00, 0.00, 0.00, 0.00, 0.00, 0.00, 0.000, 0.000, 0.000, 11:23:59.545, 1561476239545
120, -35595.91, -15484.15, 0.00, 0.00, 0.00, 0.00, 0.00, 0.00, 0.000, 0.000, 0.000, 11:23:59.545, 1561476239545
121, -35911.59, -15784.11, 0.00, 0.00, 0.00, 0.00, 0.00, 0.00, 0.000, 0.000, 0.000, 11:23:59.546, 1561476239546
122, -36799.82, -16623.04, 0.00, 0.00, 0.00, 0.00, 0.00, 0.00, 0.000, 0.000, 0.000, 11:23:59.546, 1561476239546
123, -36599.41, -16426.34, 0.00, 0.00, 0.00, 0.00, 0.00, 0.00, 0.000, 0.000, 0.000, 11:23:59.546, 1561476239546
124, -35743.34, -15603.98, 0.00, 0.00, 0.00, 0.00, 0.00, 0.00, 0.000, 0.000, 0.000, 11:23:59.547, 1561476239547
125, -35882.86, -15734.73, 0.00, 0.00, 0.00, 0.00, 0.00, 0.00, 0.000, 0.000, 0.000, 11:23:59.547, 1561476239547
126, -36743.18, -16561.53, 0.00, 0.00, 0.00, 0.00, 0.00, 0.00, 0.000, 0.000, 0.000, 11:23:59.548, 1561476239548
127, -36692.87, -16511.88, 0.00, 0.00, 0.00, 0.00, 0.00, 0.00, 0.072, -0.040, 1.030, 11:23:59.549, 1561476239549
128, -35851.21, -15696.02, 0.00, 0.00, 0.00, 0.00, 0.00, 0.00, 0.000, 0.000, 0.000, 11:23:59.550, 1561476239550
129, -35758.79, -15611.84, 0.00, 0.00, 0.00, 0.00, 0.00, 0.00, 0.000, 0.000, 0.000, 11:23:59.551, 1561476239551
130, -36612.92, -16440.18, 0.00, 0.00, 0.00, 0.00, 0.00, 0.00, 0.000, 0.000, 0.000, 11:23:59.551, 1561476239551
131, -36849.42, -16669.39, 0.00, 0.00, 0.00, 0.00, 0.00, 0.00, 0.000, 0.000, 0.000, 11:23:59.552, 1561476239552
132, -36012.55, -15862.90, 0.00, 0.00, 0.00, 0.00, 0.00, 0.00, 0.000, 0.000, 0.000, 11:23:59.552, 1561476239552
133, -35667.10, -15533.72, 0.00, 0.00, 0.00, 0.00, 0.00, 0.00, 0.000, 0.000, 0.000, 11:23:59.553, 1561476239553
134, -36456.23, -16291.65, 0.00, 0.00, 0.00, 0.00, 0.00, 0.00, 0.000, 0.000, 0.000, 11:23:59.553, 1561476239553
135, -36896.71, -16719.69, 0.00, 0.00, 0.00, 0.00, 0.00, 0.00, 0.000, 0.000, 0.000, 11:23:59.553, 1561476239553
136, -36160.07, -16013.62, 0.00, 0.00, 0.00, 0.00, 0.00, 0.00, 0.000, 0.000, 0.000, 11:23:59.553, 1561476239553
137, -35631.61, -15502.75, 0.00, 0.00, 0.00, 0.00, 0.00, 0.00, 0.000, 0.000, 0.000, 11:23:59.554, 1561476239554
138, -36294.45, -16137.58, 0.00, 0.00, 0.00, 0.00, 0.00, 0.00, 0.074, -0.046, 1.028, 11:23:59.554, 1561476239554
139, -36917.53, -16730.41, 0.00, 0.00, 0.00, 0.00, 0.00, 0.00, 0.000, 0.000, 0.000, 11:23:59.554, 1561476239554
140, -36327.48, -16167.40, 0.00, 0.00, 0.00, 0.00, 0.00, 0.00, 0.000, 0.000, 0.000, 11:23:59.554, 1561476239554
141, -35644.95, -15515.15, 0.00, 0.00, 0.00, 0.00, 0.00, 0.00, 0.000, 0.000, 0.000, 11:23:59.554, 1561476239554
142, -36172.90, -16017.39, 0.00, 0.00, 0.00, 0.00, 0.00, 0.00, 0.000, 0.000, 0.000, 11:23:59.554, 1561476239554
143, -36896.07, -16711.71, 0.00, 0.00, 0.00, 0.00, 0.00, 0.00, 0.000, 0.000, 0.000, 11:23:59.554, 1561476239554
144, -36446.15, -16276.58, 0.00, 0.00, 0.00, 0.00, 0.00, 0.00, 0.000, 0.000, 0.000, 11:23:59.554, 1561476239554
145, -35674.10, -15540.21, 0.00, 0.00, 0.00, 0.00, 0.00, 0.00, 0.000, 0.000, 0.000, 11:23:59.555, 1561476239555
146, -35997.50, -15853.44, 0.00, 0.00, 0.00, 0.00, 0.00, 0.00, 0.000, 0.000, 0.000, 11:23:59.555, 1561476239555
147, -36824.05, -16648.27, 0.00, 0.00, 0.00, 0.00, 0.00, 0.00, 0.000, 0.000, 0.000, 11:23:59.555, 1561476239555
148, -36600.36, -16430.34, 0.00, 0.00, 0.00, 0.00, 0.00, 0.00, 0.074, -0.042, 1.028, 11:23:59.555, 1561476239555
149, -35739.05, -15598.79, 0.00, 0.00, 0.00, 0.00, 0.00, 0.00, 0.000, 0.000, 0.000, 11:23:59.555, 1561476239555
150, -35871.73, -15727.96, 0.00, 0.00, 0.00, 0.00, 0.00, 0.00, 0.000, 0.000, 0.000, 11:23:59.555, 1561476239555
151, -36697.07, -16525.45, 0.00, 0.00, 0.00, 0.00, 0.00, 0.00, 0.000, 0.000, 0.000, 11:23:59.555, 1561476239555
152, -36670.79, -16499.59, 0.00, 0.00, 0.00, 0.00, 0.00, 0.00, 0.000, 0.000, 0.000, 11:23:59.555, 1561476239555
153, -35837.09, -15699.06, 0.00, 0.00, 0.00, 0.00, 0.00, 0.00, 0.000, 0.000, 0.000, 11:23:59.555, 1561476239555
154, -35775.39, -15646.09, 0.00, 0.00, 0.00, 0.00, 0.00, 0.00, 0.000, 0.000, 0.000, 11:23:59.556, 1561476239556
155, -36646.38, -16476.25, 0.00, 0.00, 0.00, 0.00, 0.00, 0.00, 0.000, 0.000, 0.000, 11:23:59.556, 1561476239556
156, -36869.36, -16683.25, 0.00, 0.00, 0.00, 0.00, 0.00, 0.00, 0.000, 0.000, 0.000, 11:23:59.556, 1561476239556
157, -36053.07, -15900.49, 0.00, 0.00, 0.00, 0.00, 0.00, 0.00, 0.000, 0.000, 0.000, 11:23:59.556, 1561476239556
158, -35746.79, -15609.05, 0.00, 0.00, 0.00, 0.00, 0.00, 0.00, 0.074, -0.038, 1.030, 11:23:59.556, 1561476239556
159, -36512.40, -16342.48, 0.00, 0.00, 0.00, 0.00, 0.00, 0.00, 0.000, 0.000, 0.000, 11:23:59.556, 1561476239556
160, -36923.76, -16733.37, 0.00, 0.00, 0.00, 0.00, 0.00, 0.00, 0.000, 0.000, 0.000, 11:23:59.556, 1561476239556
161, -36161.84, -16001.21, 0.00, 0.00, 0.00, 0.00, 0.00, 0.00, 0.000, 0.000, 0.000, 11:23:59.556, 1561476239556
162, -35638.56, -15503.57, 0.00, 0.00, 0.00, 0.00, 0.00, 0.00, 0.000, 0.000, 0.000, 11:23:59.556, 1561476239556
163, -36335.40, -16173.41, 0.00, 0.00, 0.00, 0.00, 0.00, 0.00, 0.000, 0.000, 0.000, 11:23:59.557, 1561476239557
164, -36950.41, -16764.37, 0.00, 0.00, 0.00, 0.00, 0.00, 0.00, 0.000, 0.000, 0.000, 11:23:59.557, 1561476239557
165, -36331.33, -16172.63, 0.00, 0.00, 0.00, 0.00, 0.00, 0.00, 0.000, 0.000, 0.000, 11:23:59.558, 1561476239558
166, -35669.00, -15533.05, 0.00, 0.00, 0.00, 0.00, 0.00, 0.00, 0.000, 0.000, 0.000, 11:23:59.558, 1561476239558
167, -36212.75, -16054.97, 0.00, 0.00, 0.00, 0.00, 0.00, 0.00, 0.000, 0.000, 0.000, 11:23:59.558, 1561476239558
168, -36939.14, -16749.19, 0.00, 0.00, 0.00, 0.00, 0.00, 0.00, 0.072, -0.038, 1.036, 11:23:59.558, 1561476239558
169, -36497.31, -16327.79, 0.00, 0.00, 0.00, 0.00, 0.00, 0.00, 0.000, 0.000, 0.000, 11:23:59.558, 1561476239558
170, -35699.51, -15566.65, 0.00, 0.00, 0.00, 0.00, 0.00, 0.00, 0.000, 0.000, 0.000, 11:23:59.563, 1561476239563
171, -36015.30, -15869.60, 0.00, 0.00, 0.00, 0.00, 0.00, 0.00, 0.000, 0.000, 0.000, 11:23:59.563, 1561476239563
172, -36823.47, -16641.05, 0.00, 0.00, 0.00, 0.00, 0.00, 0.00, 0.000, 0.000, 0.000, 11:23:59.563, 1561476239563
173, -36613.63, -16438.50, 0.00, 0.00, 0.00, 0.00, 0.00, 0.00, 0.000, 0.000, 0.000, 11:23:59.563, 1561476239563
174, -35826.13, -15682.50, 0.00, 0.00, 0.00, 0.00, 0.00, 0.00, 0.000, 0.000, 0.000, 11:23:59.563, 1561476239563
175, -35948.45, -15796.22, 0.00, 0.00, 0.00, 0.00, 0.00, 0.00, 0.000, 0.000, 0.000, 11:23:59.563, 1561476239563
176, -36787.44, -16599.01, 0.00, 0.00, 0.00, 0.00, 0.00, 0.00, 0.000, 0.000, 0.000, 11:23:59.563, 1561476239563
177, -36766.43, -16580.95, 0.00, 0.00, 0.00, 0.00, 0.00, 0.00, 0.000, 0.000, 0.000, 11:23:59.563, 1561476239563
178, -35927.81, -15779.01, 0.00, 0.00, 0.00, 0.00, 0.00, 0.00, 0.072, -0.038, 1.038, 11:23:59.564, 1561476239564
179, -35820.52, -15675.32, 0.00, 0.00, 0.00, 0.00, 0.00, 0.00, 0.000, 0.000, 0.000, 11:23:59.564, 1561476239564
180, -36657.33, -16475.60, 0.00, 0.00, 0.00, 0.00, 0.00, 0.00, 0.000, 0.000, 0.000, 11:23:59.564, 1561476239564
181, -36871.91, -16685.49, 0.00, 0.00, 0.00, 0.00, 0.00, 0.00, 0.000, 0.000, 0.000, 11:23:59.564, 1561476239564
182, -36071.00, -15919.83, 0.00, 0.00, 0.00, 0.00, 0.00, 0.00, 0.000, 0.000, 0.000, 11:23:59.564, 1561476239564
183, -35735.54, -15598.12, 0.00, 0.00, 0.00, 0.00, 0.00, 0.00, 0.000, 0.000, 0.000, 11:23:59.564, 1561476239564
184, -36512.63, -16339.77, 0.00, 0.00, 0.00, 0.00, 0.00, 0.00, 0.000, 0.000, 0.000, 11:23:59.564, 1561476239564
185, -36935.72, -16745.50, 0.00, 0.00, 0.00, 0.00, 0.00, 0.00, 0.000, 0.000, 0.000, 11:23:59.564, 1561476239564
186, -36202.11, -16036.75, 0.00, 0.00, 0.00, 0.00, 0.00, 0.00, 0.000, 0.000, 0.000, 11:23:59.565, 1561476239565
187, -35683.64, -15541.95, 0.00, 0.00, 0.00, 0.00, 0.00, 0.00, 0.000, 0.000, 0.000, 11:23:59.565, 1561476239565
188, -36356.21, -16184.99, 0.00, 0.00, 0.00, 0.00, 0.00, 0.00, 0.000, 0.000, 0.000, 11:23:59.565, 1561476239565
189, -36974.63, -16775.43, 0.00, 0.00, 0.00, 0.00, 0.00, 0.00, 0.068, -0.038, 1.040, 11:23:59.565, 1561476239565
190, -36374.91, -16197.06, 0.00, 0.00, 0.00, 0.00, 0.00, 0.00, 0.000, 0.000, 0.000, 11:23:59.565, 1561476239565
191, -35679.78, -15534.08, 0.00, 0.00, 0.00, 0.00, 0.00, 0.00, 0.000, 0.000, 0.000, 11:23:59.565, 1561476239565
192, -36189.46, -16027.59, 0.00, 0.00, 0.00, 0.00, 0.00, 0.00, 0.000, 0.000, 0.000, 11:23:59.565, 1561476239565
193, -36950.61, -16762.38, 0.00, 0.00, 0.00, 0.00, 0.00, 0.00, 0.000, 0.000, 0.000, 11:23:59.566, 1561476239566
194, -36535.58, -16361.16, 0.00, 0.00, 0.00, 0.00, 0.00, 0.00, 0.000, 0.000, 0.000, 11:23:59.566, 1561476239566
195, -35730.98, -15585.31, 0.00, 0.00, 0.00, 0.00, 0.00, 0.00, 0.000, 0.000, 0.000, 11:23:59.566, 1561476239566
196, -36050.03, -15894.93, 0.00, 0.00, 0.00, 0.00, 0.00, 0.00, 0.000, 0.000, 0.000, 11:23:59.566, 1561476239566
197, -36871.37, -16679.81, 0.00, 0.00, 0.00, 0.00, 0.00, 0.00, 0.000, 0.000, 0.000, 11:23:59.566, 1561476239566
198, -36681.94, -16495.12, 0.00, 0.00, 0.00, 0.00, 0.00, 0.00, 0.000, 0.000, 0.000, 11:23:59.566, 1561476239566
199, -35838.27, -15688.22, 0.00, 0.00, 0.00, 0.00, 0.00, 0.00, 0.070, -0.034, 1.038, 11:23:59.566, 1561476239566
200, -35943.28, -15793.67, 0.00, 0.00, 0.00, 0.00, 0.00, 0.00, 0.000, 0.000, 0.000, 11:23:59.566, 1561476239566
201, -36803.31, -16615.04, 0.00, 0.00, 0.00, 0.00, 0.00, 0.00, 0.000, 0.000, 0.000, 11:23:59.566, 1561476239566
202, -36800.87, -16616.22, 0.00, 0.00, 0.00, 0.00, 0.00, 0.00, 0.000, 0.000, 0.000, 11:23:59.566, 1561476239566
203, -35936.60, -15781.90, 0.00, 0.00, 0.00, 0.00, 0.00, 0.00, 0.000, 0.000, 0.000, 11:23:59.567, 1561476239567
204, -35826.52, -15672.93, 0.00, 0.00, 0.00, 0.00, 0.00, 0.00, 0.000, 0.000, 0.000, 11:23:59.567, 1561476239567
205, -36676.48, -16492.17, 0.00, 0.00, 0.00, 0.00, 0.00, 0.00, 0.000, 0.000, 0.000, 11:23:59.567, 1561476239567
206, -36890.55, -16696.84, 0.00, 0.00, 0.00, 0.00, 0.00, 0.00, 0.000, 0.000, 0.000, 11:23:59.567, 1561476239567
207, -36084.03, -15926.27, 0.00, 0.00, 0.00, 0.00, 0.00, 0.00, 0.000, 0.000, 0.000, 11:23:59.567, 1561476239567
208, -35777.25, -15628.72, 0.00, 0.00, 0.00, 0.00, 0.00, 0.00, 0.000, 0.000, 0.000, 11:23:59.567, 1561476239567
209, -36547.76, -16373.93, 0.00, 0.00, 0.00, 0.00, 0.00, 0.00, 0.076, -0.040, 1.032, 11:23:59.567, 1561476239567
210, -36974.50, -16782.40, 0.00, 0.00, 0.00, 0.00, 0.00, 0.00, 0.000, 0.000, 0.000, 11:23:59.567, 1561476239567
211, -36229.45, -16065.63, 0.00, 0.00, 0.00, 0.00, 0.00, 0.00, 0.000, 0.000, 0.000, 11:23:59.568, 1561476239568
212, -35676.42, -15531.98, 0.00, 0.00, 0.00, 0.00, 0.00, 0.00, 0.000, 0.000, 0.000, 11:23:59.568, 1561476239568
213, -36360.36, -16190.89, 0.00, 0.00, 0.00, 0.00, 0.00, 0.00, 0.000, 0.000, 0.000, 11:23:59.568, 1561476239568
214, -37018.36, -16818.55, 0.00, 0.00, 0.00, 0.00, 0.00, 0.00, 0.000, 0.000, 0.000, 11:23:59.568, 1561476239568
215, -36413.72, -16229.20, 0.00, 0.00, 0.00, 0.00, 0.00, 0.00, 0.000, 0.000, 0.000, 11:23:59.568, 1561476239568
216, -35721.64, -15569.91, 0.00, 0.00, 0.00, 0.00, 0.00, 0.00, 0.000, 0.000, 0.000, 11:23:59.569, 1561476239569
217, -36234.70, -16070.95, 0.00, 0.00, 0.00, 0.00, 0.00, 0.00, 0.000, 0.000, 0.000, 11:23:59.569, 1561476239569
218, -37011.05, -16813.90, 0.00, 0.00, 0.00, 0.00, 0.00, 0.00, 0.000, 0.000, 0.000, 11:23:59.569, 1561476239569
219, -36587.48, -16407.05, 0.00, 0.00, 0.00, 0.00, 0.00, 0.00, 0.074, -0.042, 1.034, 11:23:59.569, 1561476239569
220, -35757.25, -15613.32, 0.00, 0.00, 0.00, 0.00, 0.00, 0.00, 0.000, 0.000, 0.000, 11:23:59.569, 1561476239569
221, -36078.66, -15924.77, 0.00, 0.00, 0.00, 0.00, 0.00, 0.00, 0.000, 0.000, 0.000, 11:23:59.569, 1561476239569
222, -36931.03, -16742.60, 0.00, 0.00, 0.00, 0.00, 0.00, 0.00, 0.000, 0.000, 0.000, 11:23:59.569, 1561476239569
223, -36726.82, -16544.52, 0.00, 0.00, 0.00, 0.00, 0.00, 0.00, 0.000, 0.000, 0.000, 11:23:59.569, 1561476239569
224, -35865.88, -15716.70, 0.00, 0.00, 0.00, 0.00, 0.00, 0.00, 0.000, 0.000, 0.000, 11:24:00.023, 1561476240023
225, -35986.33, -15823.29, 0.00, 0.00, 0.00, 0.00, 0.00, 0.00, 0.000, 0.000, 0.000, 11:24:00.023, 1561476240023
226, -36849.33, -16650.46, 0.00, 0.00, 0.00, 0.00, 0.00, 0.00, 0.000, 0.000, 0.000, 11:24:00.023, 1561476240023
227, -36829.23, -16633.07, 0.00, 0.00, 0.00, 0.00, 0.00, 0.00, 0.000, 0.000, 0.000, 11:24:00.023, 1561476240023
228, -35955.26, -15798.08, 0.00, 0.00, 0.00, 0.00, 0.00, 0.00, 0.000, 0.000, 0.000, 11:24:00.023, 1561476240023
229, -35833.00, -15681.92, 0.00, 0.00, 0.00, 0.00, 0.00, 0.00, 0.072, -0.040, 1.036, 11:24:00.024, 1561476240024
230, -36681.76, -16495.63, 0.00, 0.00, 0.00, 0.00, 0.00, 0.00, 0.000, 0.000, 0.000, 11:24:00.024, 1561476240024
231, -36905.99, -16711.53, 0.00, 0.00, 0.00, 0.00, 0.00, 0.00, 0.000, 0.000, 0.000, 11:24:00.024, 1561476240024
232, -36111.28, -15944.10, 0.00, 0.00, 0.00, 0.00, 0.00, 0.00, 0.000, 0.000, 0.000, 11:24:00.024, 1561476240024
233, -35804.99, -15661.64, 0.00, 0.00, 0.00, 0.00, 0.00, 0.00, 0.000, 0.000, 0.000, 11:24:00.024, 1561476240024
234, -36583.08, -16415.77, 0.00, 0.00, 0.00, 0.00, 0.00, 0.00, 0.000, 0.000, 0.000, 11:24:00.025, 1561476240025
235, -36993.68, -16791.99, 0.00, 0.00, 0.00, 0.00, 0.00, 0.00, 0.000, 0.000, 0.000, 11:24:00.025, 1561476240025
236, -36238.55, -16057.54, 0.00, 0.00, 0.00, 0.00, 0.00, 0.00, 0.000, 0.000, 0.000, 11:24:00.025, 1561476240025
237, -35711.56, -15551.27, 0.00, 0.00, 0.00, 0.00, 0.00, 0.00, 0.000, 0.000, 0.000, 11:24:00.025, 1561476240025
238, -36413.58, -16227.30, 0.00, 0.00, 0.00, 0.00, 0.00, 0.00, 0.000, 0.000, 0.000, 11:24:00.025, 1561476240025
239, -37044.33, -16840.72, 0.00, 0.00, 0.00, 0.00, 0.00, 0.00, 0.000, 0.000, 0.000, 11:24:00.025, 1561476240025
240, -36423.64, -16245.83, 0.00, 0.00, 0.00, 0.00, 0.00, 0.00, 0.070, -0.040, 1.038, 11:24:00.025, 1561476240025
241, -35736.66, -15584.80, 0.00, 0.00, 0.00, 0.00, 0.00, 0.00, 0.000, 0.000, 0.000, 11:24:00.025, 1561476240025
242, -36278.27, -16101.17, 0.00, 0.00, 0.00, 0.00, 0.00, 0.00, 0.000, 0.000, 0.000, 11:24:00.025, 1561476240025
243, -37037.89, -16831.71, 0.00, 0.00, 0.00, 0.00, 0.00, 0.00, 0.000, 0.000, 0.000, 11:24:00.025, 1561476240025
244, -36592.73, -16403.99, 0.00, 0.00, 0.00, 0.00, 0.00, 0.00, 0.000, 0.000, 0.000, 11:24:00.025, 1561476240025
245, -35791.85, -15637.30, 0.00, 0.00, 0.00, 0.00, 0.00, 0.00, 0.000, 0.000, 0.000, 11:24:00.025, 1561476240025
246, -36117.98, -15956.31, 0.00, 0.00, 0.00, 0.00, 0.00, 0.00, 0.000, 0.000, 0.000, 11:24:00.025, 1561476240025
247, -36961.43, -16766.83, 0.00, 0.00, 0.00, 0.00, 0.00, 0.00, 0.000, 0.000, 0.000, 11:24:00.026, 1561476240026
248, -36750.60, -16554.69, 0.00, 0.00, 0.00, 0.00, 0.00, 0.00, 0.000, 0.000, 0.000, 11:24:00.026, 1561476240026
249, -35872.76, -15708.25, 0.00, 0.00, 0.00, 0.00, 0.00, 0.00, 0.000, 0.000, 0.000, 11:24:00.026, 1561476240026
250, -35979.91, -15818.73, 0.00, 0.00, 0.00, 0.00, 0.00, 0.00, 0.078, -0.042, 1.036, 11:24:00.026, 1561476240026
251, -36828.95, -16643.27, 0.00, 0.00, 0.00, 0.00, 0.00, 0.00, 0.000, 0.000, 0.000, 11:24:00.026, 1561476240026
252, -36802.46, -16615.10, 0.00, 0.00, 0.00, 0.00, 0.00, 0.00, 0.000, 0.000, 0.000, 11:24:00.026, 1561476240026
253, -35943.19, -15779.12, 0.00, 0.00, 0.00, 0.00, 0.00, 0.00, 0.000, 0.000, 0.000, 11:24:00.026, 1561476240026
254, -35882.35, -15716.34, 0.00, 0.00, 0.00, 0.00, 0.00, 0.00, 0.000, 0.000, 0.000, 11:24:00.026, 1561476240026
255, -36752.52, -16550.39, 0.00, 0.00, 0.00, 0.00, 0.00, 0.00, 0.000, 0.000, 0.000, 11:24:00.026, 1561476240026
0, -36940.91, -16731.69, 0.00, 0.00, 0.00, 0.00, 0.00, 0.00, 0.000, 0.000, 0.000, 11:24:00.026, 1561476240026
1, -36110.83, -15936.21, 0.00, 0.00, 0.00, 0.00, 0.00, 0.00, 0.000, 0.000, 0.000, 11:24:00.026, 1561476240026
2, -35812.10, -15653.89, 0.00, 0.00, 0.00, 0.00, 0.00, 0.00, 0.000, 0.000, 0.000, 11:24:00.027, 1561476240027
3, -36627.96, -16442.86, 0.00, 0.00, 0.00, 0.00, 0.00, 0.00, 0.000, 0.000, 0.000, 11:24:00.028, 1561476240028
4, -37065.02, -16862.87, 0.00, 0.00, 0.00, 0.00, 0.00, 0.00, 0.076, -0.040, 1.038, 11:24:00.028, 1561476240028
5, -36307.64, -16130.29, 0.00, 0.00, 0.00, 0.00, 0.00, 0.00, 0.000, 0.000, 0.000, 11:24:00.029, 1561476240029
6, -35751.37, -15600.20, 0.00, 0.00, 0.00, 0.00, 0.00, 0.00, 0.000, 0.000, 0.000, 11:24:00.029, 1561476240029
7, -36408.66, -16232.40, 0.00, 0.00, 0.00, 0.00, 0.00, 0.00, 0.000, 0.000, 0.000, 11:24:00.029, 1561476240029
8, -37037.51, -16834.08, 0.00, 0.00, 0.00, 0.00, 0.00, 0.00, 0.000, 0.000, 0.000, 11:24:00.029, 1561476240029
9, -36435.60, -16248.62, 0.00, 0.00, 0.00, 0.00, 0.00, 0.00, 0.000, 0.000, 0.000, 11:24:00.029, 1561476240029
10, -35755.44, -15593.90, 0.00, 0.00, 0.00, 0.00, 0.00, 0.00, 0.000, 0.000, 0.000, 11:24:00.029, 1561476240029
11, -36271.54, -16089.61, 0.00, 0.00, 0.00, 0.00, 0.00, 0.00, 0.000, 0.000, 0.000, 11:24:00.029, 1561476240029
12, -37030.45, -16811.17, 0.00, 0.00, 0.00, 0.00, 0.00, 0.00, 0.000, 0.000, 0.000, 11:24:00.029, 1561476240029
13, -36621.21, -16417.96, 0.00, 0.00, 0.00, 0.00, 0.00, 0.00, 0.000, 0.000, 0.000, 11:24:00.029, 1561476240029
14, -35801.64, -15633.57, 0.00, 0.00, 0.00, 0.00, 0.00, 0.00, 0.070, -0.038, 1.040, 11:24:00.029, 1561476240029
15, -36143.77, -15968.71, 0.00, 0.00, 0.00, 0.00, 0.00, 0.00, 0.000, 0.000, 0.000, 11:24:00.029, 1561476240029
16, -36997.46, -16795.86, 0.00, 0.00, 0.00, 0.00, 0.00, 0.00, 0.000, 0.000, 0.000, 11:24:00.029, 1561476240029
17, -36750.45, -16556.41, 0.00, 0.00, 0.00, 0.00, 0.00, 0.00, 0.000, 0.000, 0.000, 11:24:00.030, 1561476240030
18, -35892.68, -15732.52, 0.00, 0.00, 0.00, 0.00, 0.00, 0.00, 0.000, 0.000, 0.000, 11:24:00.030, 1561476240030
19, -36018.20, -15855.14, 0.00, 0.00, 0.00, 0.00, 0.00, 0.00, 0.000, 0.000, 0.000, 11:24:00.030, 1561476240030
20, -36864.93, -16659.51, 0.00, 0.00, 0.00, 0.00, 0.00, 0.00, 0.000, 0.000, 0.000, 11:24:00.030, 1561476240030
21, -36847.79, -16638.39, 0.00, 0.00, 0.00, 0.00, 0.00, 0.00, 0.000, 0.000, 0.000, 11:24:00.030, 1561476240030
22, -35991.14, -15813.93, 0.00, 0.00, 0.00, 0.00, 0.00, 0.00, 0.000, 0.000, 0.000, 11:24:00.030, 1561476240030
23, -35904.10, -15736.83, 0.00, 0.00, 0.00, 0.00, 0.00, 0.00, 0.000, 0.000, 0.000, 11:24:00.030, 1561476240030
24, -36766.45, -16567.25, 0.00, 0.00, 0.00, 0.00, 0.00, 0.00, 0.070, -0.040, 1.040, 11:24:00.030, 1561476240030
25, -36973.50, -16759.76, 0.00, 0.00, 0.00, 0.00, 0.00, 0.00, 0.000, 0.000, 0.000, 11:24:00.030, 1561476240030
26, -36119.17, -15941.75, 0.00, 0.00, 0.00, 0.00, 0.00, 0.00, 0.000, 0.000, 0.000, 11:24:00.030, 1561476240030
27, -35780.45, -15622.06, 0.00, 0.00, 0.00, 0.00, 0.00, 0.00, 0.000, 0.000, 0.000, 11:24:00.031, 1561476240031
28, -36586.92, -16394.67, 0.00, 0.00, 0.00, 0.00, 0.00, 0.00, 0.000, 0.000, 0.000, 11:24:00.031, 1561476240031
29, -37029.44, -16812.06, 0.00, 0.00, 0.00, 0.00, 0.00, 0.00, 0.000, 0.000, 0.000, 11:24:00.031, 1561476240031
30, -36288.59, -16103.22, 0.00, 0.00, 0.00, 0.00, 0.00, 0.00, 0.000, 0.000, 0.000, 11:24:00.031, 1561476240031
31, -35783.55, -15624.63, 0.00, 0.00, 0.00, 0.00, 0.00, 0.00, 0.000, 0.000, 0.000, 11:24:00.031, 1561476240031
32, -36449.79, -16261.88, 0.00, 0.00, 0.00, 0.00, 0.00, 0.00, 0.000, 0.000, 0.000, 11:24:00.032, 1561476240032
33, -37058.77, -16841.61, 0.00, 0.00, 0.00, 0.00, 0.00, 0.00, 0.000, 0.000, 0.000, 11:24:00.032, 1561476240032
34, -36451.31, -16260.42, 0.00, 0.00, 0.00, 0.00, 0.00, 0.00, 0.074, -0.042, 1.034, 11:24:00.032, 1561476240032
35, -35752.33, -15590.83, 0.00, 0.00, 0.00, 0.00, 0.00, 0.00, 0.000, 0.000, 0.000, 11:24:00.032, 1561476240032
36, -36296.68, -16106.76, 0.00, 0.00, 0.00, 0.00, 0.00, 0.00, 0.000, 0.000, 0.000, 11:24:00.032, 1561476240032
37, -37069.05, -16844.74, 0.00, 0.00, 0.00, 0.00, 0.00, 0.00, 0.000, 0.000, 0.000, 11:24:00.032, 1561476240032
38, -36642.84, -16434.88, 0.00, 0.00, 0.00, 0.00, 0.00, 0.00, 0.000, 0.000, 0.000, 11:24:00.032, 1561476240032
39, -35839.86, -15662.51, 0.00, 0.00, 0.00, 0.00, 0.00, 0.00, 0.000, 0.000, 0.000, 11:24:00.032, 1561476240032
40, -36162.21, -15971.39, 0.00, 0.00, 0.00, 0.00, 0.00, 0.00, 0.000, 0.000, 0.000, 11:24:00.032, 1561476240032
41, -36988.92, -16765.95, 0.00, 0.00, 0.00, 0.00, 0.00, 0.00, 0.000, 0.000, 0.000, 11:24:00.033, 1561476240033
42, -36770.50, -16558.91, 0.00, 0.00, 0.00, 0.00, 0.00, 0.00, 0.000, 0.000, 0.000, 11:24:00.033, 1561476240033
43, -35929.36, -15752.26, 0.00, 0.00, 0.00, 0.00, 0.00, 0.00, 0.000, 0.000, 0.000, 11:24:00.033, 1561476240033
44, -36042.07, -15860.53, 0.00, 0.00, 0.00, 0.00, 0.00, 0.00, 0.000, 0.000, 0.000, 11:24:00.033, 1561476240033
45, -36908.52, -16693.45, 0.00, 0.00, 0.00, 0.00, 0.00, 0.00, 0.076, -0.040, 1.032, 11:24:00.033, 1561476240033
46, -36892.74, -16676.35, 0.00, 0.00, 0.00, 0.00, 0.00, 0.00, 0.000, 0.000, 0.000, 11:24:00.033, 1561476240033
47, -35987.07, -15806.13, 0.00, 0.00, 0.00, 0.00, 0.00, 0.00, 0.000, 0.000, 0.000, 11:24:00.033, 1561476240033
48, -35875.33, -15702.59, 0.00, 0.00, 0.00, 0.00, 0.00, 0.00, 0.000, 0.000, 0.000, 11:24:00.033, 1561476240033
49, -36793.90, -16586.16, 0.00, 0.00, 0.00, 0.00, 0.00, 0.00, 0.000, 0.000, 0.000, 11:24:00.033, 1561476240033
50, -37027.63, -16811.69, 0.00, 0.00, 0.00, 0.00, 0.00, 0.00, 0.000, 0.000, 0.000, 11:24:00.033, 1561476240033
51, -36197.29, -16017.57, 0.00, 0.00, 0.00, 0.00, 0.00, 0.00, 0.000, 0.000, 0.000, 11:24:00.033, 1561476240033
52, -35875.09, -15707.89, 0.00, 0.00, 0.00, 0.00, 0.00, 0.00, 0.000, 0.000, 0.000, 11:24:00.033, 1561476240033
53, -36652.37, -16449.79, 0.00, 0.00, 0.00, 0.00, 0.00, 0.00, 0.000, 0.000, 0.000, 11:24:00.033, 1561476240033
54, -37065.27, -16841.53, 0.00, 0.00, 0.00, 0.00, 0.00, 0.00, 0.000, 0.000, 0.000, 11:24:00.033, 1561476240033
55, -36310.14, -16113.95, 0.00, 0.00, 0.00, 0.00, 0.00, 0.00, 0.072, -0.042, 1.028, 11:24:00.034, 1561476240034
56, -35777.25, -15606.32, 0.00, 0.00, 0.00, 0.00, 0.00, 0.00, 0.000, 0.000, 0.000, 11:24:00.034, 1561476240034
57, -36455.94, -16260.87, 0.00, 0.00, 0.00, 0.00, 0.00, 0.00, 0.000, 0.000, 0.000, 11:24:00.034, 1561476240034
58, -37096.12, -16876.53, 0.00, 0.00, 0.00, 0.00, 0.00, 0.00, 0.000, 0.000, 0.000, 11:24:00.034, 1561476240034
59, -36513.54, -16311.21, 0.00, 0.00, 0.00, 0.00, 0.00, 0.00, 0.000, 0.000, 0.000, 11:24:00.034, 1561476240034
60, -35800.32, -15635.76, 0.00, 0.00, 0.00, 0.00, 0.00, 0.00, 0.000, 0.000, 0.000, 11:24:00.034, 1561476240034
61, -36326.99, -16142.81, 0.00, 0.00, 0.00, 0.00, 0.00, 0.00, 0.000, 0.000, 0.000, 11:24:00.034, 1561476240034
62, -37067.06, -16842.80, 0.00, 0.00, 0.00, 0.00, 0.00, 0.00, 0.000, 0.000, 0.000, 11:24:00.034, 1561476240034
63, -36641.95, -16426.41, 0.00, 0.00, 0.00, 0.00, 0.00, 0.00, 0.000, 0.000, 0.000, 11:24:00.034, 1561476240034
64, -35857.23, -15674.47, 0.00, 0.00, 0.00, 0.00, 0.00, 0.00, 0.000, 0.000, 0.000, 11:24:00.034, 1561476240034
65, -36215.26, -16023.65, 0.00, 0.00, 0.00, 0.00, 0.00, 0.00, 0.072, -0.042, 1.032, 11:24:00.034, 1561476240034
66, -37038.63, -16818.26, 0.00, 0.00, 0.00, 0.00, 0.00, 0.00, 0.000, 0.000, 0.000, 11:24:00.034, 1561476240034
67, -36778.79, -16565.37, 0.00, 0.00, 0.00, 0.00, 0.00, 0.00, 0.000, 0.000, 0.000, 11:24:00.034, 1561476240034
68, -35926.14, -15746.22, 0.00, 0.00, 0.00, 0.00, 0.00, 0.00, 0.000, 0.000, 0.000, 11:24:00.035, 1561476240035
69, -36037.80, -15854.74, 0.00, 0.00, 0.00, 0.00, 0.00, 0.00, 0.000, 0.000, 0.000, 11:24:00.035, 1561476240035
70, -36877.67, -16664.77, 0.00, 0.00, 0.00, 0.00, 0.00, 0.00, 0.000, 0.000, 0.000, 11:24:00.035, 1561476240035
71, -36849.58, -16632.98, 0.00, 0.00, 0.00, 0.00, 0.00, 0.00, 0.000, 0.000, 0.000, 11:24:00.035, 1561476240035
72, -35974.59, -15793.97, 0.00, 0.00, 0.00, 0.00, 0.00, 0.00, 0.000, 0.000, 0.000, 11:24:00.035, 1561476240035
73, -35918.89, -15738.51, 0.00, 0.00, 0.00, 0.00, 0.00, 0.00, 0.000, 0.000, 0.000, 11:24:00.035, 1561476240035
74, -36814.04, -16595.07, 0.00, 0.00, 0.00, 0.00, 0.00, 0.00, 0.000, 0.000, 0.000, 11:24:00.035, 1561476240035
75, -37083.60, -16853.26, 0.00, 0.00, 0.00, 0.00, 0.00, 0.00, 0.072, -0.040, 1.032, 11:24:00.035, 1561476240035
76, -36281.26, -16078.32, 0.00, 0.00, 0.00, 0.00, 0.00, 0.00, 0.000, 0.000, 0.000, 11:24:00.035, 1561476240035
77, -35949.36, -15762.36, 0.00, 0.00, 0.00, 0.00, 0.00, 0.00, 0.000, 0.000, 0.000, 11:24:00.035, 1561476240035
78, -36704.45, -16486.40, 0.00, 0.00, 0.00, 0.00, 0.00, 0.00, 0.000, 0.000, 0.000, 11:24:00.035, 1561476240035
79, -37109.59, -16866.92, 0.00, 0.00, 0.00, 0.00, 0.00, 0.00, 0.000, 0.000, 0.000, 11:24:00.035, 1561476240035
80, -36368.10, -16156.06, 0.00, 0.00, 0.00, 0.00, 0.00, 0.00, 0.000, 0.000, 0.000, 11:24:00.035, 1561476240035
81, -35833.53, -15648.97, 0.00, 0.00, 0.00, 0.00, 0.00, 0.00, 0.000, 0.000, 0.000, 11:24:00.035, 1561476240035
82, -36509.76, -16304.57, 0.00, 0.00, 0.00, 0.00, 0.00, 0.00, 0.000, 0.000, 0.000, 11:24:00.035, 1561476240035
83, -37142.36, -16913.32, 0.00, 0.00, 0.00, 0.00, 0.00, 0.00, 0.000, 0.000, 0.000, 11:24:00.035, 1561476240035
84, -36522.46, -16313.55, 0.00, 0.00, 0.00, 0.00, 0.00, 0.00, 0.000, 0.000, 0.000, 11:24:00.036, 1561476240036
85, -35822.71, -15637.21, 0.00, 0.00, 0.00, 0.00, 0.00, 0.00, 0.072, -0.042, 1.032, 11:24:00.036, 1561476240036
86, -36336.09, -16127.48, 0.00, 0.00, 0.00, 0.00, 0.00, 0.00, 0.000, 0.000, 0.000, 11:24:00.036, 1561476240036
87, -37100.86, -16867.95, 0.00, 0.00, 0.00, 0.00, 0.00, 0.00, 0.000, 0.000, 0.000, 11:24:00.036, 1561476240036
88, -36658.02, -16446.35, 0.00, 0.00, 0.00, 0.00, 0.00, 0.00, 0.000, 0.000, 0.000, 11:24:00.036, 1561476240036
89, -35857.05, -15677.27, 0.00, 0.00, 0.00, 0.00, 0.00, 0.00, 0.000, 0.000, 0.000, 11:24:00.506, 1561476240506
90, -36198.18, -16011.05, 0.00, 0.00, 0.00, 0.00, 0.00, 0.00, 0.000, 0.000, 0.000, 11:24:00.506, 1561476240506
91, -37033.38, -16814.21, 0.00, 0.00, 0.00, 0.00, 0.00, 0.00, 0.000, 0.000, 0.000, 11:24:00.506, 1561476240506
92, -36797.95, -16582.20, 0.00, 0.00, 0.00, 0.00, 0.00, 0.00, 0.000, 0.000, 0.000, 11:24:00.506, 1561476240506
93, -35964.38, -15781.94, 0.00, 0.00, 0.00, 0.00, 0.00, 0.00, 0.000, 0.000, 0.000, 11:24:00.506, 1561476240506
94, -36091.50, -15907.33, 0.00, 0.00, 0.00, 0.00, 0.00, 0.00, 0.000, 0.000, 0.000, 11:24:00.507, 1561476240507
95, -36951.97, -16727.17, 0.00, 0.00, 0.00, 0.00, 0.00, 0.00, 0.068, -0.042, 1.032, 11:24:00.507, 1561476240507
96, -36955.99, -16726.57, 0.00, 0.00, 0.00, 0.00, 0.00, 0.00, 0.000, 0.000, 0.000, 11:24:00.508, 1561476240508
97, -36086.76, -15891.64, 0.00, 0.00, 0.00, 0.00, 0.00, 0.00, 0.000, 0.000, 0.000, 11:24:00.508, 1561476240508
98, -35967.29, -15781.27, 0.00, 0.00, 0.00, 0.00, 0.00, 0.00, 0.000, 0.000, 0.000, 11:24:00.508, 1561476240508
99, -36814.71, -16595.95, 0.00, 0.00, 0.00, 0.00, 0.00, 0.00, 0.000, 0.000, 0.000, 11:24:00.508, 1561476240508
100, -37030.74, -16802.48, 0.00, 0.00, 0.00, 0.00, 0.00, 0.00, 0.000, 0.000, 0.000, 11:24:00.509, 1561476240509
101, -36192.28, -15997.57, 0.00, 0.00, 0.00, 0.00, 0.00, 0.00, 0.000, 0.000, 0.000, 11:24:00.509, 1561476240509
102, -35842.41, -15665.98, 0.00, 0.00, 0.00, 0.00, 0.00, 0.00, 0.000, 0.000, 0.000, 11:24:00.509, 1561476240509
103, -36644.16, -16439.71, 0.00, 0.00, 0.00, 0.00, 0.00, 0.00, 0.000, 0.000, 0.000, 11:24:00.509, 1561476240509
104, -37130.65, -16900.96, 0.00, 0.00, 0.00, 0.00, 0.00, 0.00, 0.000, 0.000, 0.000, 11:24:00.510, 1561476240510
105, -36392.75, -16185.34, 0.00, 0.00, 0.00, 0.00, 0.00, 0.00, 0.000, 0.000, 0.000, 11:24:00.510, 1561476240510
106, -35847.77, -15662.47, 0.00, 0.00, 0.00, 0.00, 0.00, 0.00, 0.068, -0.040, 1.030, 11:24:00.510, 1561476240510
107, -36515.80, -16306.18, 0.00, 0.00, 0.00, 0.00, 0.00, 0.00, 0.000, 0.000, 0.000, 11:24:00.510, 1561476240510
108, -37160.54, -16917.25, 0.00, 0.00, 0.00, 0.00, 0.00, 0.00, 0.000, 0.000, 0.000, 11:24:00.510, 1561476240510
109, -36550.11, -16332.11, 0.00, 0.00, 0.00, 0.00, 0.00, 0.00, 0.000, 0.000, 0.000, 11:24:00.510, 1561476240510
110, -35828.62, -15643.05, 0.00, 0.00, 0.00, 0.00, 0.00, 0.00, 0.000, 0.000, 0.000, 11:24:00.511, 1561476240511
111, -36363.38, -16154.68, 0.00, 0.00, 0.00, 0.00, 0.00, 0.00, 0.000, 0.000, 0.000, 11:24:00.511, 1561476240511
112, -37158.79, -16921.75, 0.00, 0.00, 0.00, 0.00, 0.00, 0.00, 0.000, 0.000, 0.000, 11:24:00.511, 1561476240511
113, -36699.91, -16482.62, 0.00, 0.00, 0.00, 0.00, 0.00, 0.00, 0.000, 0.000, 0.000, 11:24:00.511, 1561476240511
114, -35863.71, -15688.44, 0.00, 0.00, 0.00, 0.00, 0.00, 0.00, 0.000, 0.000, 0.000, 11:24:00.511, 1561476240511
115, -36196.77, -16018.69, 0.00, 0.00, 0.00, 0.00, 0.00, 0.00, 0.000, 0.000, 0.000, 11:24:00.512, 1561476240512
116, -37052.39, -16841.50, 0.00, 0.00, 0.00, 0.00, 0.00, 0.00, 0.072, -0.042, 1.032, 11:24:00.512, 1561476240512
117, -36824.65, -16613.54, 0.00, 0.00, 0.00, 0.00, 0.00, 0.00, 0.000, 0.000, 0.000, 11:24:00.512, 1561476240512
118, -35976.27, -15791.93, 0.00, 0.00, 0.00, 0.00, 0.00, 0.00, 0.000, 0.000, 0.000, 11:24:00.512, 1561476240512
119, -36093.51, -15901.16, 0.00, 0.00, 0.00, 0.00, 0.00, 0.00, 0.000, 0.000, 0.000, 11:24:00.512, 1561476240512
120, -36953.11, -16726.57, 0.00, 0.00, 0.00, 0.00, 0.00, 0.00, 0.000, 0.000, 0.000, 11:24:00.513, 1561476240513
121, -36946.52, -16717.25, 0.00, 0.00, 0.00, 0.00, 0.00, 0.00, 0.000, 0.000, 0.000, 11:24:00.513, 1561476240513
122, -36081.61, -15886.12, 0.00, 0.00, 0.00, 0.00, 0.00, 0.00, 0.000, 0.000, 0.000, 11:24:00.513, 1561476240513
123, -35978.35, -15790.52, 0.00, 0.00, 0.00, 0.00, 0.00, 0.00, 0.000, 0.000, 0.000, 11:24:00.513, 1561476240513
124, -36841.02, -16626.26, 0.00, 0.00, 0.00, 0.00, 0.00, 0.00, 0.000, 0.000, 0.000, 11:24:00.513, 1561476240513
125, -37059.48, -16837.99, 0.00, 0.00, 0.00, 0.00, 0.00, 0.00, 0.000, 0.000, 0.000, 11:24:00.514, 1561476240514
126, -36230.41, -16035.83, 0.00, 0.00, 0.00, 0.00, 0.00, 0.00, 0.070, -0.042, 1.030, 11:24:00.514, 1561476240514
127, -35897.73, -15706.30, 0.00, 0.00, 0.00, 0.00, 0.00, 0.00, 0.000, 0.000, 0.000, 11:24:00.514, 1561476240514
128, -36695.28, -16468.41, 0.00, 0.00, 0.00, 0.00, 0.00, 0.00, 0.000, 0.000, 0.000, 11:24:00.514, 1561476240514
129, -37147.12, -16904.65, 0.00, 0.00, 0.00, 0.00, 0.00, 0.00, 0.000, 0.000, 0.000, 11:24:00.514, 1561476240514
130, -36405.87, -16196.30, 0.00, 0.00, 0.00, 0.00, 0.00, 0.00, 0.000, 0.000, 0.000, 11:24:00.514, 1561476240514
131, -35889.34, -15703.71, 0.00, 0.00, 0.00, 0.00, 0.00, 0.00, 0.000, 0.000, 0.000, 11:24:00.514, 1561476240514
132, -36563.72, -16354.41, 0.00, 0.00, 0.00, 0.00, 0.00, 0.00, 0.000, 0.000, 0.000, 11:24:00.514, 1561476240514
133, -37156.73, -16926.82, 0.00, 0.00, 0.00, 0.00, 0.00, 0.00, 0.000, 0.000, 0.000, 11:24:00.514, 1561476240514
134, -36554.33, -16340.49, 0.00, 0.00, 0.00, 0.00, 0.00, 0.00, 0.000, 0.000, 0.000, 11:24:00.514, 1561476240514
135, -35876.89, -15691.64, 0.00, 0.00, 0.00, 0.00, 0.00, 0.00, 0.000, 0.000, 0.000, 11:24:00.515, 1561476240515
136, -36396.06, -16195.20, 0.00, 0.00, 0.00, 0.00, 0.00, 0.00, 0.068, -0.042, 1.034, 11:24:00.515, 1561476240515
137, -37148.57, -16917.81, 0.00, 0.00, 0.00, 0.00, 0.00, 0.00, 0.000, 0.000, 0.000, 11:24:00.515, 1561476240515
138, -36748.34, -16526.48, 0.00, 0.00, 0.00, 0.00, 0.00, 0.00, 0.000, 0.000, 0.000, 11:24:00.515, 1561476240515
139, -35938.03, -15743.47, 0.00, 0.00, 0.00, 0.00, 0.00, 0.00, 0.000, 0.000, 0.000, 11:24:00.515, 1561476240515
140, -36241.81, -16032.68, 0.00, 0.00, 0.00, 0.00, 0.00, 0.00, 0.000, 0.000, 0.000, 11:24:00.515, 1561476240515
141, -37080.67, -16839.20, 0.00, 0.00, 0.00, 0.00, 0.00, 0.00, 0.000, 0.000, 0.000, 11:24:00.515, 1561476240515
142, -36865.29, -16632.92, 0.00, 0.00, 0.00, 0.00, 0.00, 0.00, 0.000, 0.000, 0.000, 11:24:00.515, 1561476240515
143, -36040.00, -15843.00, 0.00, 0.00, 0.00, 0.00, 0.00, 0.00, 0.000, 0.000, 0.000, 11:24:00.516, 1561476240516
144, -36155.87, -15955.57, 0.00, 0.00, 0.00, 0.00, 0.00, 0.00, 0.000, 0.000, 0.000, 11:24:00.516, 1561476240516
145, -37025.75, -16790.85, 0.00, 0.00, 0.00, 0.00, 0.00, 0.00, 0.000, 0.000, 0.000, 11:24:00.516, 1561476240516
146, -37041.91, -16807.97, 0.00, 0.00, 0.00, 0.00, 0.00, 0.00, 0.066, -0.038, 1.030, 11:24:00.516, 1561476240516
147, -36151.49, -15948.68, 0.00, 0.00, 0.00, 0.00, 0.00, 0.00, 0.000, 0.000, 0.000, 11:24:00.516, 1561476240516
148, -36006.89, -15813.97, 0.00, 0.00, 0.00, 0.00, 0.00, 0.00, 0.000, 0.000, 0.000, 11:24:00.516, 1561476240516
149, -36837.13, -16614.70, 0.00, 0.00, 0.00, 0.00, 0.00, 0.00, 0.000, 0.000, 0.000, 11:24:00.516, 1561476240516
150, -37101.84, -16865.04, 0.00, 0.00, 0.00, 0.00, 0.00, 0.00, 0.000, 0.000, 0.000, 11:24:00.517, 1561476240517
151, -36294.92, -16083.24, 0.00, 0.00, 0.00, 0.00, 0.00, 0.00, 0.000, 0.000, 0.000, 11:24:00.517, 1561476240517
152, -35946.90, -15751.32, 0.00, 0.00, 0.00, 0.00, 0.00, 0.00, 0.000, 0.000, 0.000, 11:24:00.517, 1561476240517
153, -36738.69, -16514.70, 0.00, 0.00, 0.00, 0.00, 0.00, 0.00, 0.000, 0.000, 0.000, 11:24:00.518, 1561476240518
154, -37193.39, -16950.47, 0.00, 0.00, 0.00, 0.00, 0.00, 0.00, 0.000, 0.000, 0.000, 11:24:00.518, 1561476240518
155, -36464.61, -16251.39, 0.00, 0.00, 0.00, 0.00, 0.00, 0.00, 0.000, 0.000, 0.000, 11:24:00.518, 1561476240518
156, -35922.67, -15730.42, 0.00, 0.00, 0.00, 0.00, 0.00, 0.00, 0.000, 0.000, 0.000, 11:24:00.518, 1561476240518
157, -36601.85, -16385.86, 0.00, 0.00, 0.00, 0.00, 0.00, 0.00, 0.072, -0.038, 1.032, 11:24:00.518, 1561476240518
158, -37240.17, -16993.99, 0.00, 0.00, 0.00, 0.00, 0.00, 0.00, 0.000, 0.000, 0.000, 11:24:00.518, 1561476240518
159, -36620.80, -16395.56, 0.00, 0.00, 0.00, 0.00, 0.00, 0.00, 0.000, 0.000, 0.000, 11:24:00.518, 1561476240518
160, -35903.58, -15707.33, 0.00, 0.00, 0.00, 0.00, 0.00, 0.00, 0.000, 0.000, 0.000, 11:24:00.518, 1561476240518
161, -36428.29, -16209.64, 0.00, 0.00, 0.00, 0.00, 0.00, 0.00, 0.000, 0.000, 0.000, 11:24:00.518, 1561476240518
162, -37182.17, -16936.05, 0.00, 0.00, 0.00, 0.00, 0.00, 0.00, 0.000, 0.000, 0.000, 11:24:00.518, 1561476240518
163, -36786.03, -16553.57, 0.00, 0.00, 0.00, 0.00, 0.00, 0.00, 0.000, 0.000, 0.000, 11:24:00.519, 1561476240519
164, -36008.84, -15800.36, 0.00, 0.00, 0.00, 0.00, 0.00, 0.00, 0.000, 0.000, 0.000, 11:24:00.519, 1561476240519
165, -36308.95, -16086.93, 0.00, 0.00, 0.00, 0.00, 0.00, 0.00, 0.000, 0.000, 0.000, 11:24:00.519, 1561476240519
166, -37131.75, -16884.75, 0.00, 0.00, 0.00, 0.00, 0.00, 0.00, 0.000, 0.000, 0.000, 11:24:00.519, 1561476240519
167, -36890.41, -16661.17, 0.00, 0.00, 0.00, 0.00, 0.00, 0.00, 0.074, -0.038, 1.032, 11:24:00.519, 1561476240519
168, -36034.12, -15838.07, 0.00, 0.00, 0.00, 0.00, 0.00, 0.00, 0.000, 0.000, 0.000, 11:24:00.519, 1561476240519
169, -36164.76, -15966.39, 0.00, 0.00, 0.00, 0.00, 0.00, 0.00, 0.000, 0.000, 0.000, 11:24:00.519, 1561476240519
170, -37048.06, -16819.89, 0.00, 0.00, 0.00, 0.00, 0.00, 0.00, 0.000, 0.000, 0.000, 11:24:00.519, 1561476240519
171, -37068.49, -16832.40, 0.00, 0.00, 0.00, 0.00, 0.00, 0.00, 0.000, 0.000, 0.000, 11:24:00.519, 1561476240519
172, -36195.61, -15987.89, 0.00, 0.00, 0.00, 0.00, 0.00, 0.00, 0.000, 0.000, 0.000, 11:24:00.519, 1561476240519
173, -36083.52, -15874.12, 0.00, 0.00, 0.00, 0.00, 0.00, 0.00, 0.000, 0.000, 0.000, 11:24:00.519, 1561476240519
174, -36916.36, -16675.16, 0.00, 0.00, 0.00, 0.00, 0.00, 0.00, 0.000, 0.000, 0.000, 11:24:00.520, 1561476240520
175, -37130.52, -16875.46, 0.00, 0.00, 0.00, 0.00, 0.00, 0.00, 0.000, 0.000, 0.000, 11:24:00.520, 1561476240520
176, -36301.73, -16076.65, 0.00, 0.00, 0.00, 0.00, 0.00, 0.00, 0.000, 0.000, 0.000, 11:24:00.520, 1561476240520
177, -35961.32, -15752.62, 0.00, 0.00, 0.00, 0.00, 0.00, 0.00, 0.074, -0.040, 1.038, 11:24:00.520, 1561476240520
178, -36761.04, -16529.70, 0.00, 0.00, 0.00, 0.00, 0.00, 0.00, 0.000, 0.000, 0.000, 11:24:00.520, 1561476240520
179, -37214.69, -16968.51, 0.00, 0.00, 0.00, 0.00, 0.00, 0.00, 0.000, 0.000, 0.000, 11:24:00.520, 1561476240520
180, -36473.51, -16253.43, 0.00, 0.00, 0.00, 0.00, 0.00, 0.00, 0.000, 0.000, 0.000, 11:24:00.520, 1561476240520
181, -35943.17, -15738.91, 0.00, 0.00, 0.00, 0.00, 0.00, 0.00, 0.000, 0.000, 0.000, 11:24:00.520, 1561476240520
182, -36609.56, -16377.84, 0.00, 0.00, 0.00, 0.00, 0.00, 0.00, 0.000, 0.000, 0.000, 11:24:00.520, 1561476240520
183, -37212.99, -16958.83, 0.00, 0.00, 0.00, 0.00, 0.00, 0.00, 0.000, 0.000, 0.000, 11:24:00.520, 1561476240520
184, -36643.79, -16411.70, 0.00, 0.00, 0.00, 0.00, 0.00, 0.00, 0.000, 0.000, 0.000, 11:24:00.520, 1561476240520
185, -35966.88, -15762.72, 0.00, 0.00, 0.00, 0.00, 0.00, 0.00, 0.000, 0.000, 0.000, 11:24:00.520, 1561476240520
186, -36462.04, -16244.93, 0.00, 0.00, 0.00, 0.00, 0.00, 0.00, 0.000, 0.000, 0.000, 11:24:00.521, 1561476240521
187, -37189.39, -16950.20, 0.00, 0.00, 0.00, 0.00, 0.00, 0.00, 0.068, -0.038, 1.034, 11:24:00.521, 1561476240521
188, -36771.30, -16547.58, 0.00, 0.00, 0.00, 0.00, 0.00, 0.00, 0.000, 0.000, 0.000, 11:24:00.521, 1561476240521
189, -35962.28, -15768.78, 0.00, 0.00, 0.00, 0.00, 0.00, 0.00, 0.000, 0.000, 0.000, 11:24:00.521, 1561476240521
190, -36311.91, -16103.56, 0.00, 0.00, 0.00, 0.00, 0.00, 0.00, 0.000, 0.000, 0.000, 11:24:00.521, 1561476240521
191, -37159.71, -16916.89, 0.00, 0.00, 0.00, 0.00, 0.00, 0.00, 0.000, 0.000, 0.000, 11:24:00.521, 1561476240521
192, -36924.21, -16683.95, 0.00, 0.00, 0.00, 0.00, 0.00, 0.00, 0.000, 0.000, 0.000, 11:24:00.521, 1561476240521
193, -36051.17, -15841.64, 0.00, 0.00, 0.00, 0.00, 0.00, 0.00, 0.000, 0.000, 0.000, 11:24:00.521, 1561476240521
194, -36176.90, -15966.39, 0.00, 0.00, 0.00, 0.00, 0.00, 0.00, 0.000, 0.000, 0.000, 11:24:00.521, 1561476240521
195, -37056.11, -16814.52, 0.00, 0.00, 0.00, 0.00, 0.00, 0.00, 0.000, 0.000, 0.000, 11:24:00.521, 1561476240521
196, -37043.07, -16811.57, 0.00, 0.00, 0.00, 0.00, 0.00, 0.00, 0.000, 0.000, 0.000, 11:24:00.521, 1561476240521
197, -36175.43, -15980.09, 0.00, 0.00, 0.00, 0.00, 0.00, 0.00, 0.072, -0.040, 1.034, 11:24:00.522, 1561476240522
198, -36052.76, -15856.82, 0.00, 0.00, 0.00, 0.00, 0.00, 0.00, 0.000, 0.000, 0.000, 11:24:00.522, 1561476240522
199, -36887.02, -16658.73, 0.00, 0.00, 0.00, 0.00, 0.00, 0.00, 0.000, 0.000, 0.000, 11:24:00.522, 1561476240522
200, -37140.24, -16902.05, 0.00, 0.00, 0.00, 0.00, 0.00, 0.00, 0.000, 0.000, 0.000, 11:24:00.522, 1561476240522
201, -36331.66, -16118.47, 0.00, 0.00, 0.00, 0.00, 0.00, 0.00, 0.000, 0.000, 0.000, 11:24:00.522, 1561476240522
202, -35976.05, -15768.57, 0.00, 0.00, 0.00, 0.00, 0.00, 0.00, 0.000, 0.000, 0.000, 11:24:00.522, 1561476240522
203, -36744.01, -16501.94, 0.00, 0.00, 0.00, 0.00, 0.00, 0.00, 0.000, 0.000, 0.000, 11:24:00.522, 1561476240522
204, -37215.90, -16951.85, 0.00, 0.00, 0.00, 0.00, 0.00, 0.00, 0.000, 0.000, 0.000, 11:24:00.522, 1561476240522
205, -36492.93, -16263.33, 0.00, 0.00, 0.00, 0.00, 0.00, 0.00, 0.000, 0.000, 0.000, 11:24:00.522, 1561476240522
206, -35930.07, -15728.74, 0.00, 0.00, 0.00, 0.00, 0.00, 0.00, 0.000, 0.000, 0.000, 11:24:00.522, 1561476240522
207, -36599.41, -16373.37, 0.00, 0.00, 0.00, 0.00, 0.00, 0.00, 0.000, 0.000, 0.000, 11:24:00.522, 1561476240522
208, -37243.39, -16991.82, 0.00, 0.00, 0.00, 0.00, 0.00, 0.00, 0.070, -0.042, 1.030, 11:24:00.522, 1561476240522
209, -36659.30, -16425.27, 0.00, 0.00, 0.00, 0.00, 0.00, 0.00, 0.000, 0.000, 0.000, 11:24:00.985, 1561476240985
210, -35950.46, -15746.51, 0.00, 0.00, 0.00, 0.00, 0.00, 0.00, 0.000, 0.000, 0.000, 11:24:00.986, 1561476240986
211, -36467.34, -16240.04, 0.00, 0.00, 0.00, 0.00, 0.00, 0.00, 0.000, 0.000, 0.000, 11:24:00.986, 1561476240986
212, -37217.48, -16968.15, 0.00, 0.00, 0.00, 0.00, 0.00, 0.00, 0.000, 0.000, 0.000, 11:24:00.986, 1561476240986
213, -36800.00, -16575.76, 0.00, 0.00, 0.00, 0.00, 0.00, 0.00, 0.000, 0.000, 0.000, 11:24:00.986, 1561476240986
214, -35984.23, -15784.62, 0.00, 0.00, 0.00, 0.00, 0.00, 0.00, 0.000, 0.000, 0.000, 11:24:00.986, 1561476240986
215, -36318.01, -16096.99, 0.00, 0.00, 0.00, 0.00, 0.00, 0.00, 0.000, 0.000, 0.000, 11:24:00.986, 1561476240986
216, -37174.66, -16917.95, 0.00, 0.00, 0.00, 0.00, 0.00, 0.00, 0.000, 0.000, 0.000, 11:24:00.986, 1561476240986
217, -36972.06, -16724.58, 0.00, 0.00, 0.00, 0.00, 0.00, 0.00, 0.000, 0.000, 0.000, 11:24:00.987, 1561476240987
218, -36091.96, -15881.96, 0.00, 0.00, 0.00, 0.00, 0.00, 0.00, 0.072, -0.036, 1.032, 11:24:00.987, 1561476240987
219, -36187.32, -15975.62, 0.00, 0.00, 0.00, 0.00, 0.00, 0.00, 0.000, 0.000, 0.000, 11:24:00.987, 1561476240987
220, -37074.03, -16825.14, 0.00, 0.00, 0.00, 0.00, 0.00, 0.00, 0.000, 0.000, 0.000, 11:24:00.987, 1561476240987
221, -37073.23, -16819.93, 0.00, 0.00, 0.00, 0.00, 0.00, 0.00, 0.000, 0.000, 0.000, 11:24:00.987, 1561476240987
222, -36200.48, -15982.32, 0.00, 0.00, 0.00, 0.00, 0.00, 0.00, 0.000, 0.000, 0.000, 11:24:00.987, 1561476240987
223, -36066.98, -15861.04, 0.00, 0.00, 0.00, 0.00, 0.00, 0.00, 0.000, 0.000, 0.000, 11:24:00.987, 1561476240987
224, -36894.26, -16660.99, 0.00, 0.00, 0.00, 0.00, 0.00, 0.00, 0.000, 0.000, 0.000, 11:24:00.987, 1561476240987
225, -37138.41, -16893.49, 0.00, 0.00, 0.00, 0.00, 0.00, 0.00, 0.000, 0.000, 0.000, 11:24:00.987, 1561476240987
226, -36344.47, -16120.01, 0.00, 0.00, 0.00, 0.00, 0.00, 0.00, 0.000, 0.000, 0.000, 11:24:00.987, 1561476240987
227, -36013.89, -15806.26, 0.00, 0.00, 0.00, 0.00, 0.00, 0.00, 0.000, 0.000, 0.000, 11:24:00.987, 1561476240987
228, -36785.32, -16547.58, 0.00, 0.00, 0.00, 0.00, 0.00, 0.00, 0.066, -0.038, 1.032, 11:24:00.987, 1561476240987
229, -37246.81, -16992.87, 0.00, 0.00, 0.00, 0.00, 0.00, 0.00, 0.000, 0.000, 0.000, 11:24:00.988, 1561476240988
230, -36518.17, -16290.55, 0.00, 0.00, 0.00, 0.00, 0.00, 0.00, 0.000, 0.000, 0.000, 11:24:00.988, 1561476240988
231, -35968.74, -15768.31, 0.00, 0.00, 0.00, 0.00, 0.00, 0.00, 0.000, 0.000, 0.000, 11:24:00.988, 1561476240988
232, -36638.84, -16414.58, 0.00, 0.00, 0.00, 0.00, 0.00, 0.00, 0.000, 0.000, 0.000, 11:24:00.988, 1561476240988
233, -37254.14, -17004.65, 0.00, 0.00, 0.00, 0.00, 0.00, 0.00, 0.000, 0.000, 0.000, 11:24:00.988, 1561476240988
234, -36643.49, -16416.15, 0.00, 0.00, 0.00, 0.00, 0.00, 0.00, 0.000, 0.000, 0.000, 11:24:00.988, 1561476240988
235, -35944.98, -15743.72, 0.00, 0.00, 0.00, 0.00, 0.00, 0.00, 0.000, 0.000, 0.000, 11:24:00.988, 1561476240988
236, -36459.85, -16239.82, 0.00, 0.00, 0.00, 0.00, 0.00, 0.00, 0.000, 0.000, 0.000, 11:24:00.988, 1561476240988
237, -37243.17, -16980.15, 0.00, 0.00, 0.00, 0.00, 0.00, 0.00, 0.000, 0.000, 0.000, 11:24:00.988, 1561476240988
238, -36816.81, -16565.32, 0.00, 0.00, 0.00, 0.00, 0.00, 0.00, 0.068, -0.040, 1.032, 11:24:00.988, 1561476240988
239, -36028.66, -15812.76, 0.00, 0.00, 0.00, 0.00, 0.00, 0.00, 0.000, 0.000, 0.000, 11:24:00.988, 1561476240988
240, -36363.29, -16138.88, 0.00, 0.00, 0.00, 0.00, 0.00, 0.00, 0.000, 0.000, 0.000, 11:24:00.988, 1561476240988
241, -37182.33, -16926.60, 0.00, 0.00, 0.00, 0.00, 0.00, 0.00, 0.000, 0.000, 0.000, 11:24:00.988, 1561476240988
242, -36968.87, -16723.96, 0.00, 0.00, 0.00, 0.00, 0.00, 0.00, 0.000, 0.000, 0.000, 11:24:00.988, 1561476240988
243, -36104.17, -15898.64, 0.00, 0.00, 0.00, 0.00, 0.00, 0.00, 0.000, 0.000, 0.000, 11:24:00.988, 1561476240988
244, -36197.53, -15990.77, 0.00, 0.00, 0.00, 0.00, 0.00, 0.00, 0.000, 0.000, 0.000, 11:24:00.988, 1561476240988
245, -37053.02, -16803.39, 0.00, 0.00, 0.00, 0.00, 0.00, 0.00, 0.000, 0.000, 0.000, 11:24:00.988, 1561476240988
246, -37061.79, -16803.50, 0.00, 0.00, 0.00, 0.00, 0.00, 0.00, 0.000, 0.000, 0.000, 11:24:00.989, 1561476240989
247, -36228.04, -16013.95, 0.00, 0.00, 0.00, 0.00, 0.00, 0.00, 0.000, 0.000, 0.000, 11:24:00.989, 1561476240989
248, -36088.95, -15886.03, 0.00, 0.00, 0.00, 0.00, 0.00, 0.00, 0.072, -0.036, 1.032, 11:24:00.989, 1561476240989
249, -36916.68, -16682.07, 0.00, 0.00, 0.00, 0.00, 0.00, 0.00, 0.000, 0.000, 0.000, 11:24:00.989, 1561476240989
250, -37135.23, -16889.56, 0.00, 0.00, 0.00, 0.00, 0.00, 0.00, 0.000, 0.000, 0.000, 11:24:00.989, 1561476240989
251, -36295.25, -16080.09, 0.00, 0.00, 0.00, 0.00, 0.00, 0.00, 0.000, 0.000, 0.000, 11:24:00.989, 1561476240989
252, -35993.39, -15784.22, 0.00, 0.00, 0.00, 0.00, 0.00, 0.00, 0.000, 0.000, 0.000, 11:24:00.989, 1561476240989
253, -36789.83, -16547.20, 0.00, 0.00, 0.00, 0.00, 0.00, 0.00, 0.000, 0.000, 0.000, 11:24:00.989, 1561476240989
254, -37255.04, -16995.95, 0.00, 0.00, 0.00, 0.00, 0.00, 0.00, 0.000, 0.000, 0.000, 11:24:00.989, 1561476240989
255, -36573.44, -16341.78, 0.00, 0.00, 0.00, 0.00, 0.00, 0.00, 0.000, 0.000, 0.000, 11:24:00.989, 1561476240989
0, -36045.79, -15836.52, 0.00, 0.00, 0.00, 0.00, 0.00, 0.00, 0.000, 0.000, 0.000, 11:24:00.989, 1561476240989
1, -36696.13, -16461.10, 0.00, 0.00, 0.00, 0.00, 0.00, 0.00, 0.000, 0.000, 0.000, 11:24:00.989, 1561476240989
2, -37340.13, -17073.74, 0.00, 0.00, 0.00, 0.00, 0.00, 0.00, 0.072, -0.030, 1.036, 11:24:00.989, 1561476240989
3, -36702.30, -16459.40, 0.00, 0.00, 0.00, 0.00, 0.00, 0.00, 0.000, 0.000, 0.000, 11:24:00.989, 1561476240989
4, -35953.54, -15741.15, 0.00, 0.00, 0.00, 0.00, 0.00, 0.00, 0.000, 0.000, 0.000, 11:24:00.989, 1561476240989
5, -36461.86, -16235.88, 0.00, 0.00, 0.00, 0.00, 0.00, 0.00, 0.000, 0.000, 0.000, 11:24:00.989, 1561476240989
6, -37253.56, -17001.65, 0.00, 0.00, 0.00, 0.00, 0.00, 0.00, 0.000, 0.000, 0.000, 11:24:00.990, 1561476240990
7, -36847.32, -16605.56, 0.00, 0.00, 0.00, 0.00, 0.00, 0.00, 0.000, 0.000, 0.000, 11:24:00.990, 1561476240990
8, -36062.88, -15854.36, 0.00, 0.00, 0.00, 0.00, 0.00, 0.00, 0.000, 0.000, 0.000, 11:24:00.990, 1561476240990
9, -36368.95, -16154.95, 0.00, 0.00, 0.00, 0.00, 0.00, 0.00, 0.000, 0.000, 0.000, 11:24:00.990, 1561476240990
10, -37195.56, -16943.87, 0.00, 0.00, 0.00, 0.00, 0.00, 0.00, 0.000, 0.000, 0.000, 11:24:00.990, 1561476240990
11, -36976.00, -16720.98, 0.00, 0.00, 0.00, 0.00, 0.00, 0.00, 0.000, 0.000, 0.000, 11:24:00.990, 1561476240990
12, -36103.74, -15884.58, 0.00, 0.00, 0.00, 0.00, 0.00, 0.00, 0.000, 0.000, 0.000, 11:24:00.990, 1561476240990
13, -36202.94, -15986.03, 0.00, 0.00, 0.00, 0.00, 0.00, 0.00, 0.072, -0.034, 1.028, 11:24:00.990, 1561476240990
14, -37113.02, -16854.71, 0.00, 0.00, 0.00, 0.00, 0.00, 0.00, 0.000, 0.000, 0.000, 11:24:00.990, 1561476240990
15, -37156.45, -16894.72, 0.00, 0.00, 0.00, 0.00, 0.00, 0.00, 0.000, 0.000, 0.000, 11:24:00.990, 1561476240990
16, -36253.57, -16038.94, 0.00, 0.00, 0.00, 0.00, 0.00, 0.00, 0.000, 0.000, 0.000, 11:24:00.990, 1561476240990
17, -36089.84, -15884.98, 0.00, 0.00, 0.00, 0.00, 0.00, 0.00, 0.000, 0.000, 0.000, 11:24:00.990, 1561476240990
18, -36966.50, -16716.82, 0.00, 0.00, 0.00, 0.00, 0.00, 0.00, 0.000, 0.000, 0.000, 11:24:00.990, 1561476240990
19, -37221.29, -16960.44, 0.00, 0.00, 0.00, 0.00, 0.00, 0.00, 0.000, 0.000, 0.000, 11:24:00.990, 1561476240990
20, -36402.21, -16171.26, 0.00, 0.00, 0.00, 0.00, 0.00, 0.00, 0.000, 0.000, 0.000, 11:24:00.990, 1561476240990
21, -36051.69, -15833.93, 0.00, 0.00, 0.00, 0.00, 0.00, 0.00, 0.000, 0.000, 0.000, 11:24:00.991, 1561476240991
22, -36837.26, -16586.92, 0.00, 0.00, 0.00, 0.00, 0.00, 0.00, 0.000, 0.000, 0.000, 11:24:00.991, 1561476240991
23, -37311.30, -17046.85, 0.00, 0.00, 0.00, 0.00, 0.00, 0.00, 0.078, -0.040, 1.028, 11:24:00.991, 1561476240991
24, -36575.68, -16339.86, 0.00, 0.00, 0.00, 0.00, 0.00, 0.00, 0.000, 0.000, 0.000, 11:24:00.991, 1561476240991
25, -36003.72, -15790.50, 0.00, 0.00, 0.00, 0.00, 0.00, 0.00, 0.000, 0.000, 0.000, 11:24:00.991, 1561476240991
26, -36664.14, -16422.81, 0.00, 0.00, 0.00, 0.00, 0.00, 0.00, 0.000, 0.000, 0.000, 11:24:00.991, 1561476240991
27, -37281.90, -17018.80, 0.00, 0.00, 0.00, 0.00, 0.00, 0.00, 0.000, 0.000, 0.000, 11:24:00.991, 1561476240991
28, -36688.22, -16454.86, 0.00, 0.00, 0.00, 0.00, 0.00, 0.00, 0.000, 0.000, 0.000, 11:24:00.991, 1561476240991
29, -35989.14, -15785.27, 0.00, 0.00, 0.00, 0.00, 0.00, 0.00, 0.000, 0.000, 0.000, 11:24:00.992, 1561476240992
30, -36510.99, -16283.13, 0.00, 0.00, 0.00, 0.00, 0.00, 0.00, 0.000, 0.000, 0.000, 11:24:00.992, 1561476240992
31, -37301.39, -17044.30, 0.00, 0.00, 0.00, 0.00, 0.00, 0.00, 0.000, 0.000, 0.000, 11:24:00.992, 1561476240992
32, -36890.82, -16646.06, 0.00, 0.00, 0.00, 0.00, 0.00, 0.00, 0.000, 0.000, 0.000, 11:24:00.992, 1561476240992
33, -36062.19, -15845.62, 0.00, 0.00, 0.00, 0.00, 0.00, 0.00, 0.076, -0.036, 1.034, 11:24:00.992, 1561476240992
34, -36412.09, -16177.12, 0.00, 0.00, 0.00, 0.00, 0.00, 0.00, 0.000, 0.000, 0.000, 11:24:00.992, 1561476240992
35, -37269.79, -17000.45, 0.00, 0.00, 0.00, 0.00, 0.00, 0.00, 0.000, 0.000, 0.000, 11:24:00.992, 1561476240992
36, -37036.30, -16778.49, 0.00, 0.00, 0.00, 0.00, 0.00, 0.00, 0.000, 0.000, 0.000, 11:24:00.993, 1561476240993
37, -36136.11, -15926.87, 0.00, 0.00, 0.00, 0.00, 0.00, 0.00, 0.000, 0.000, 0.000, 11:24:00.993, 1561476240993
38, -36237.70, -16017.93, 0.00, 0.00, 0.00, 0.00, 0.00, 0.00, 0.000, 0.000, 0.000, 11:24:00.993, 1561476240993
39, -37119.74, -16853.79, 0.00, 0.00, 0.00, 0.00, 0.00, 0.00, 0.000, 0.000, 0.000, 11:24:00.993, 1561476240993
40, -37133.27, -16871.25, 0.00, 0.00, 0.00, 0.00, 0.00, 0.00, 0.000, 0.000, 0.000, 11:24:00.993, 1561476240993
41, -36300.44, -16072.16, 0.00, 0.00, 0.00, 0.00, 0.00, 0.00, 0.000, 0.000, 0.000, 11:24:00.993, 1561476240993
42, -36167.60, -15939.59, 0.00, 0.00, 0.00, 0.00, 0.00, 0.00, 0.000, 0.000, 0.000, 11:24:00.993, 1561476240993
43, -37001.66, -16741.10, 0.00, 0.00, 0.00, 0.00, 0.00, 0.00, 0.076, -0.038, 1.030, 11:24:00.993, 1561476240993
44, -37227.48, -16962.92, 0.00, 0.00, 0.00, 0.00, 0.00, 0.00, 0.000, 0.000, 0.000, 11:24:00.993, 1561476240993
45, -36400.57, -16170.57, 0.00, 0.00, 0.00, 0.00, 0.00, 0.00, 0.000, 0.000, 0.000, 11:24:00.994, 1561476240994
46, -36054.26, -15837.42, 0.00, 0.00, 0.00, 0.00, 0.00, 0.00, 0.000, 0.000, 0.000, 11:24:00.994, 1561476240994
47, -36838.04, -16590.38, 0.00, 0.00, 0.00, 0.00, 0.00, 0.00, 0.000, 0.000, 0.000, 11:24:00.994, 1561476240994
48, -37295.23, -17028.65, 0.00, 0.00, 0.00, 0.00, 0.00, 0.00, 0.000, 0.000, 0.000, 11:24:00.994, 1561476240994
49, -36574.02, -16333.96, 0.00, 0.00, 0.00, 0.00, 0.00, 0.00, 0.000, 0.000, 0.000, 11:24:00.994, 1561476240994
50, -36051.06, -15826.78, 0.00, 0.00, 0.00, 0.00, 0.00, 0.00, 0.000, 0.000, 0.000, 11:24:00.994, 1561476240994
51, -36721.84, -16481.10, 0.00, 0.00, 0.00, 0.00, 0.00, 0.00, 0.000, 0.000, 0.000, 11:24:00.994, 1561476240994
52, -37356.31, -17100.09, 0.00, 0.00, 0.00, 0.00, 0.00, 0.00, 0.000, 0.000, 0.000, 11:24:00.994, 1561476240994
53, -36746.58, -16506.25, 0.00, 0.00, 0.00, 0.00, 0.00, 0.00, 0.080, -0.040, 1.024, 11:24:00.994, 1561476240994
54, -36014.16, -15796.67, 0.00, 0.00, 0.00, 0.00, 0.00, 0.00, 0.000, 0.000, 0.000, 11:24:00.995, 1561476240995
55, -36520.98, -16293.84, 0.00, 0.00, 0.00, 0.00, 0.00, 0.00, 0.000, 0.000, 0.000, 11:24:00.995, 1561476240995
56, -37323.30, -17063.90, 0.00, 0.00, 0.00, 0.00, 0.00, 0.00, 0.000, 0.000, 0.000, 11:24:00.995, 1561476240995
57, -36926.58, -16667.94, 0.00, 0.00, 0.00, 0.00, 0.00, 0.00, 0.000, 0.000, 0.000, 11:24:00.995, 1561476240995
58, -36097.33, -15863.75, 0.00, 0.00, 0.00, 0.00, 0.00, 0.00, 0.000, 0.000, 0.000, 11:24:00.996, 1561476240996
59, -36382.54, -16138.90, 0.00, 0.00, 0.00, 0.00, 0.00, 0.00, 0.000, 0.000, 0.000, 11:24:00.997, 1561476240997
60, -37241.94, -16970.09, 0.00, 0.00, 0.00, 0.00, 0.00, 0.00, 0.000, 0.000, 0.000, 11:24:00.998, 1561476240998
61, -37051.68, -16787.66, 0.00, 0.00, 0.00, 0.00, 0.00, 0.00, 0.000, 0.000, 0.000, 11:24:00.998, 1561476240998
62, -36167.63, -15943.12, 0.00, 0.00, 0.00, 0.00, 0.00, 0.00, 0.000, 0.000, 0.000, 11:24:00.998, 1561476240998
63, -36302.45, -16080.11, 0.00, 0.00, 0.00, 0.00, 0.00, 0.00, 0.000, 0.000, 0.000, 11:24:00.999, 1561476240999
64, -37189.01, -16928.72, 0.00, 0.00, 0.00, 0.00, 0.00, 0.00, 0.078, -0.042, 1.030, 11:24:01.000, 1561476241000
65, -37192.21, -16926.26, 0.00, 0.00, 0.00, 0.00, 0.00, 0.00, 0.000, 0.000, 0.000, 11:24:01.000, 1561476241000
66, -36315.95, -16081.57, 0.00, 0.00, 0.00, 0.00, 0.00, 0.00, 0.000, 0.000, 0.000, 11:24:01.001, 1561476241001
67, -36178.62, -15954.90, 0.00, 0.00, 0.00, 0.00, 0.00, 0.00, 0.000, 0.000, 0.000, 11:24:01.001, 1561476241001
68, -37028.73, -16780.17, 0.00, 0.00, 0.00, 0.00, 0.00, 0.00, 0.000, 0.000, 0.000, 11:24:01.001, 1561476241001
69, -37257.03, -16987.39, 0.00, 0.00, 0.00, 0.00, 0.00, 0.00, 0.000, 0.000, 0.000, 11:24:01.001, 1561476241001
70, -36433.36, -16189.26, 0.00, 0.00, 0.00, 0.00, 0.00, 0.00, 0.000, 0.000, 0.000, 11:24:01.001, 1561476241001
71, -36089.37, -15865.18, 0.00, 0.00, 0.00, 0.00, 0.00, 0.00, 0.000, 0.000, 0.000, 11:24:01.001, 1561476241001
72, -36881.54, -16627.82, 0.00, 0.00, 0.00, 0.00, 0.00, 0.00, 0.000, 0.000, 0.000, 11:24:01.001, 1561476241001
73, -37364.56, -17085.36, 0.00, 0.00, 0.00, 0.00, 0.00, 0.00, 0.000, 0.000, 0.000, 11:24:01.466, 1561476241466
74, -36622.77, -16368.70, 0.00, 0.00, 0.00, 0.00, 0.00, 0.00, 0.076, -0.040, 1.026, 11:24:01.467, 1561476241467
75, -36066.55, -15846.72, 0.00, 0.00, 0.00, 0.00, 0.00, 0.00, 0.000, 0.000, 0.000, 11:24:01.467, 1561476241467
76, -36738.42, -16498.38, 0.00, 0.00, 0.00, 0.00, 0.00, 0.00, 0.000, 0.000, 0.000, 11:24:01.467, 1561476241467
77, -37342.45, -17075.53, 0.00, 0.00, 0.00, 0.00, 0.00, 0.00, 0.000, 0.000, 0.000, 11:24:01.467, 1561476241467
78, -36739.88, -16498.76, 0.00, 0.00, 0.00, 0.00, 0.00, 0.00, 0.000, 0.000, 0.000, 11:24:01.467, 1561476241467
79, -36059.15, -15839.50, 0.00, 0.00, 0.00, 0.00, 0.00, 0.00, 0.000, 0.000, 0.000, 11:24:01.467, 1561476241467
80, -36590.50, -16344.13, 0.00, 0.00, 0.00, 0.00, 0.00, 0.00, 0.000, 0.000, 0.000, 11:24:01.467, 1561476241467
81, -37341.45, -17060.10, 0.00, 0.00, 0.00, 0.00, 0.00, 0.00, 0.000, 0.000, 0.000, 11:24:01.468, 1561476241468
82, -36922.60, -16653.52, 0.00, 0.00, 0.00, 0.00, 0.00, 0.00, 0.000, 0.000, 0.000, 11:24:01.468, 1561476241468
83, -36131.06, -15895.33, 0.00, 0.00, 0.00, 0.00, 0.00, 0.00, 0.000, 0.000, 0.000, 11:24:01.468, 1561476241468
84, -36447.36, -16199.67, 0.00, 0.00, 0.00, 0.00, 0.00, 0.00, 0.070, -0.042, 1.028, 11:24:01.468, 1561476241468
85, -37273.21, -16998.81, 0.00, 0.00, 0.00, 0.00, 0.00, 0.00, 0.000, 0.000, 0.000, 11:24:01.468, 1561476241468
86, -37042.76, -16774.65, 0.00, 0.00, 0.00, 0.00, 0.00, 0.00, 0.000, 0.000, 0.000, 11:24:01.468, 1561476241468
87, -36156.61, -15926.09, 0.00, 0.00, 0.00, 0.00, 0.00, 0.00, 0.000, 0.000, 0.000, 11:24:01.468, 1561476241468
88, -36300.15, -16068.18, 0.00, 0.00, 0.00, 0.00, 0.00, 0.00, 0.000, 0.000, 0.000, 11:24:01.468, 1561476241468
89, -37240.91, -16965.71, 0.00, 0.00, 0.00, 0.00, 0.00, 0.00, 0.000, 0.000, 0.000, 11:24:01.468, 1561476241468
90, -37234.45, -16950.65, 0.00, 0.00, 0.00, 0.00, 0.00, 0.00, 0.000, 0.000, 0.000, 11:24:01.468, 1561476241468
91, -36358.26, -16109.17, 0.00, 0.00, 0.00, 0.00, 0.00, 0.00, 0.000, 0.000, 0.000, 11:24:01.469, 1561476241469
92, -36232.45, -15988.16, 0.00, 0.00, 0.00, 0.00, 0.00, 0.00, 0.000, 0.000, 0.000, 11:24:01.469, 1561476241469
93, -37073.88, -16800.11, 0.00, 0.00, 0.00, 0.00, 0.00, 0.00, 0.000, 0.000, 0.000, 11:24:01.469, 1561476241469
94, -37297.33, -17018.93, 0.00, 0.00, 0.00, 0.00, 0.00, 0.00, 0.076, -0.040, 1.028, 11:24:01.469, 1561476241469
95, -36450.08, -16207.52, 0.00, 0.00, 0.00, 0.00, 0.00, 0.00, 0.000, 0.000, 0.000, 11:24:01.469, 1561476241469
96, -36089.08, -15863.86, 0.00, 0.00, 0.00, 0.00, 0.00, 0.00, 0.000, 0.000, 0.000, 11:24:01.469, 1561476241469
97, -36902.04, -16644.25, 0.00, 0.00, 0.00, 0.00, 0.00, 0.00, 0.000, 0.000, 0.000, 11:24:01.469, 1561476241469
98, -37384.74, -17102.88, 0.00, 0.00, 0.00, 0.00, 0.00, 0.00, 0.000, 0.000, 0.000, 11:24:01.469, 1561476241469
99, -36668.89, -16413.80, 0.00, 0.00, 0.00, 0.00, 0.00, 0.00, 0.000, 0.000, 0.000, 11:24:01.469, 1561476241469
100, -36069.48, -15842.51, 0.00, 0.00, 0.00, 0.00, 0.00, 0.00, 0.000, 0.000, 0.000, 11:24:01.469, 1561476241469
101, -36708.56, -16459.58, 0.00, 0.00, 0.00, 0.00, 0.00, 0.00, 0.000, 0.000, 0.000, 11:24:01.469, 1561476241469
102, -37363.29, -17089.56, 0.00, 0.00, 0.00, 0.00, 0.00, 0.00, 0.000, 0.000, 0.000, 11:24:01.469, 1561476241469
103, -36802.93, -16550.37, 0.00, 0.00, 0.00, 0.00, 0.00, 0.00, 0.000, 0.000, 0.000, 11:24:01.470, 1561476241470
104, -36099.65, -15879.64, 0.00, 0.00, 0.00, 0.00, 0.00, 0.00, 0.072, -0.040, 1.030, 11:24:01.470, 1561476241470
105, -36597.56, -16360.00, 0.00, 0.00, 0.00, 0.00, 0.00, 0.00, 0.000, 0.000, 0.000, 11:24:01.470, 1561476241470
106, -37370.86, -17094.61, 0.00, 0.00, 0.00, 0.00, 0.00, 0.00, 0.000, 0.000, 0.000, 11:24:01.470, 1561476241470
107, -36968.71, -16706.47, 0.00, 0.00, 0.00, 0.00, 0.00, 0.00, 0.000, 0.000, 0.000, 11:24:01.470, 1561476241470
108, -36154.46, -15924.48, 0.00, 0.00, 0.00, 0.00, 0.00, 0.00, 0.000, 0.000, 0.000, 11:24:01.470, 1561476241470
109, -36469.46, -16223.68, 0.00, 0.00, 0.00, 0.00, 0.00, 0.00, 0.000, 0.000, 0.000, 11:24:01.470, 1561476241470
110, -37305.84, -17027.20, 0.00, 0.00, 0.00, 0.00, 0.00, 0.00, 0.000, 0.000, 0.000, 11:24:01.470, 1561476241470
111, -37071.11, -16802.61, 0.00, 0.00, 0.00, 0.00, 0.00, 0.00, 0.000, 0.000, 0.000, 11:24:01.470, 1561476241470
112, -36161.66, -15942.65, 0.00, 0.00, 0.00, 0.00, 0.00, 0.00, 0.000, 0.000, 0.000, 11:24:01.471, 1561476241471
113, -36284.10, -16065.63, 0.00, 0.00, 0.00, 0.00, 0.00, 0.00, 0.000, 0.000, 0.000, 11:24:01.471, 1561476241471
114, -37205.95, -16937.30, 0.00, 0.00, 0.00, 0.00, 0.00, 0.00, 0.074, -0.042, 1.034, 11:24:01.471, 1561476241471
115, -37226.98, -16955.27, 0.00, 0.00, 0.00, 0.00, 0.00, 0.00, 0.000, 0.000, 0.000, 11:24:01.471, 1561476241471
116, -36357.50, -16125.26, 0.00, 0.00, 0.00, 0.00, 0.00, 0.00, 0.000, 0.000, 0.000, 11:24:01.471, 1561476241471
117, -36219.79, -15999.71, 0.00, 0.00, 0.00, 0.00, 0.00, 0.00, 0.000, 0.000, 0.000, 11:24:01.471, 1561476241471
118, -37080.36, -16822.48, 0.00, 0.00, 0.00, 0.00, 0.00, 0.00, 0.000, 0.000, 0.000, 11:24:01.471, 1561476241471
119, -37324.08, -17049.40, 0.00, 0.00, 0.00, 0.00, 0.00, 0.00, 0.000, 0.000, 0.000, 11:24:01.471, 1561476241471
120, -36483.01, -16234.92, 0.00, 0.00, 0.00, 0.00, 0.00, 0.00, 0.000, 0.000, 0.000, 11:24:01.471, 1561476241471
121, -36124.13, -15895.04, 0.00, 0.00, 0.00, 0.00, 0.00, 0.00, 0.000, 0.000, 0.000, 11:24:01.471, 1561476241471
122, -36912.61, -16659.18, 0.00, 0.00, 0.00, 0.00, 0.00, 0.00, 0.000, 0.000, 0.000, 11:24:01.472, 1561476241472
123, -37383.61, -17109.19, 0.00, 0.00, 0.00, 0.00, 0.00, 0.00, 0.000, 0.000, 0.000, 11:24:01.472, 1561476241472
124, -36649.04, -16407.79, 0.00, 0.00, 0.00, 0.00, 0.00, 0.00, 0.000, 0.000, 0.000, 11:24:01.472, 1561476241472
125, -36099.07, -15882.57, 0.00, 0.00, 0.00, 0.00, 0.00, 0.00, 0.074, -0.038, 1.042, 11:24:01.472, 1561476241472
126, -36796.38, -16548.92, 0.00, 0.00, 0.00, 0.00, 0.00, 0.00, 0.000, 0.000, 0.000, 11:24:01.472, 1561476241472
127, -37421.38, -17142.31, 0.00, 0.00, 0.00, 0.00, 0.00, 0.00, 0.000, 0.000, 0.000, 11:24:01.473, 1561476241473
128, -36810.57, -16556.56, 0.00, 0.00, 0.00, 0.00, 0.00, 0.00, 0.000, 0.000, 0.000, 11:24:01.473, 1561476241473
129, -36091.09, -15868.40, 0.00, 0.00, 0.00, 0.00, 0.00, 0.00, 0.000, 0.000, 0.000, 11:24:01.473, 1561476241473
130, -36618.57, -16369.28, 0.00, 0.00, 0.00, 0.00, 0.00, 0.00, 0.000, 0.000, 0.000, 11:24:01.473, 1561476241473
131, -37416.06, -17137.84, 0.00, 0.00, 0.00, 0.00, 0.00, 0.00, 0.000, 0.000, 0.000, 11:24:01.473, 1561476241473
132, -36986.91, -16725.77, 0.00, 0.00, 0.00, 0.00, 0.00, 0.00, 0.000, 0.000, 0.000, 11:24:01.473, 1561476241473
133, -36139.46, -15901.52, 0.00, 0.00, 0.00, 0.00, 0.00, 0.00, 0.000, 0.000, 0.000, 11:24:01.473, 1561476241473
134, -36424.76, -16174.03, 0.00, 0.00, 0.00, 0.00, 0.00, 0.00, 0.000, 0.000, 0.000, 11:24:01.473, 1561476241473
135, -37313.31, -17047.03, 0.00, 0.00, 0.00, 0.00, 0.00, 0.00, 0.074, -0.036, 1.030, 11:24:01.473, 1561476241473
136, -37137.09, -16886.79, 0.00, 0.00, 0.00, 0.00, 0.00, 0.00, 0.000, 0.000, 0.000, 11:24:01.473, 1561476241473
137, -36272.61, -16050.79, 0.00, 0.00, 0.00, 0.00, 0.00, 0.00, 0.000, 0.000, 0.000, 11:24:01.473, 1561476241473
138, -36341.14, -16104.52, 0.00, 0.00, 0.00, 0.00, 0.00, 0.00, 0.000, 0.000, 0.000, 11:24:01.474, 1561476241474
139, -37224.17, -16953.84, 0.00, 0.00, 0.00, 0.00, 0.00, 0.00, 0.000, 0.000, 0.000, 11:24:01.474, 1561476241474
140, -37271.13, -16991.01, 0.00, 0.00, 0.00, 0.00, 0.00, 0.00, 0.000, 0.000, 0.000, 11:24:01.474, 1561476241474
141, -36386.87, -16127.74, 0.00, 0.00, 0.00, 0.00, 0.00, 0.00, 0.000, 0.000, 0.000, 11:24:01.474, 1561476241474
142, -36230.52, -15987.80, 0.00, 0.00, 0.00, 0.00, 0.00, 0.00, 0.000, 0.000, 0.000, 11:24:01.474, 1561476241474
143, -37121.57, -16851.27, 0.00, 0.00, 0.00, 0.00, 0.00, 0.00, 0.000, 0.000, 0.000, 11:24:01.474, 1561476241474
144, -37379.02, -17095.57, 0.00, 0.00, 0.00, 0.00, 0.00, 0.00, 0.000, 0.000, 0.000, 11:24:01.474, 1561476241474
145, -36530.39, -16284.70, 0.00, 0.00, 0.00, 0.00, 0.00, 0.00, 0.074, -0.042, 1.028, 11:24:01.474, 1561476241474
146, -36115.32, -15894.12, 0.00, 0.00, 0.00, 0.00, 0.00, 0.00, 0.000, 0.000, 0.000, 11:24:01.474, 1561476241474
147, -36881.96, -16622.57, 0.00, 0.00, 0.00, 0.00, 0.00, 0.00, 0.000, 0.000, 0.000, 11:24:01.474, 1561476241474
148, -37395.36, -17115.04, 0.00, 0.00, 0.00, 0.00, 0.00, 0.00, 0.000, 0.000, 0.000, 11:24:01.475, 1561476241475
149, -36711.78, -16468.90, 0.00, 0.00, 0.00, 0.00, 0.00, 0.00, 0.000, 0.000, 0.000, 11:24:01.475, 1561476241475
150, -36132.69, -15906.55, 0.00, 0.00, 0.00, 0.00, 0.00, 0.00, 0.000, 0.000, 0.000, 11:24:01.475, 1561476241475
151, -36766.85, -16507.68, 0.00, 0.00, 0.00, 0.00, 0.00, 0.00, 0.000, 0.000, 0.000, 11:24:01.475, 1561476241475
152, -37450.04, -17175.66, 0.00, 0.00, 0.00, 0.00, 0.00, 0.00, 0.000, 0.000, 0.000, 11:24:01.475, 1561476241475
153, -36877.45, -16629.61, 0.00, 0.00, 0.00, 0.00, 0.00, 0.00, 0.000, 0.000, 0.000, 11:24:01.478, 1561476241478
154, -36100.91, -15879.84, 0.00, 0.00, 0.00, 0.00, 0.00, 0.00, 0.000, 0.000, 0.000, 11:24:01.478, 1561476241478
155, -36579.88, -16338.34, 0.00, 0.00, 0.00, 0.00, 0.00, 0.00, 0.072, -0.038, 1.034, 11:24:01.479, 1561476241479
156, -37427.30, -17145.55, 0.00, 0.00, 0.00, 0.00, 0.00, 0.00, 0.000, 0.000, 0.000, 11:24:01.479, 1561476241479
157, -37058.57, -16789.78, 0.00, 0.00, 0.00, 0.00, 0.00, 0.00, 0.000, 0.000, 0.000, 11:24:01.479, 1561476241479
158, -36197.15, -15962.70, 0.00, 0.00, 0.00, 0.00, 0.00, 0.00, 0.000, 0.000, 0.000, 11:24:01.480, 1561476241480
159, -36461.48, -16223.99, 0.00, 0.00, 0.00, 0.00, 0.00, 0.00, 0.000, 0.000, 0.000, 11:24:01.480, 1561476241480
160, -37317.64, -17044.37, 0.00, 0.00, 0.00, 0.00, 0.00, 0.00, 0.000, 0.000, 0.000, 11:24:01.481, 1561476241481
161, -37154.01, -16886.90, 0.00, 0.00, 0.00, 0.00, 0.00, 0.00, 0.000, 0.000, 0.000, 11:24:01.481, 1561476241481
162, -36304.84, -16066.90, 0.00, 0.00, 0.00, 0.00, 0.00, 0.00, 0.000, 0.000, 0.000, 11:24:01.481, 1561476241481
163, -36369.93, -16119.07, 0.00, 0.00, 0.00, 0.00, 0.00, 0.00, 0.000, 0.000, 0.000, 11:24:01.481, 1561476241481
164, -37247.21, -16975.75, 0.00, 0.00, 0.00, 0.00, 0.00, 0.00, 0.000, 0.000, 0.000, 11:24:01.481, 1561476241481
165, -37291.63, -17027.60, 0.00, 0.00, 0.00, 0.00, 0.00, 0.00, 0.072, -0.036, 1.040, 11:24:01.481, 1561476241481
166, -36403.88, -16171.73, 0.00, 0.00, 0.00, 0.00, 0.00, 0.00, 0.000, 0.000, 0.000, 11:24:01.482, 1561476241482
167, -36208.21, -15981.43, 0.00, 0.00, 0.00, 0.00, 0.00, 0.00, 0.000, 0.000, 0.000, 11:24:01.482, 1561476241482
168, -37074.08, -16808.94, 0.00, 0.00, 0.00, 0.00, 0.00, 0.00, 0.000, 0.000, 0.000, 11:24:01.482, 1561476241482
169, -37409.15, -17135.88, 0.00, 0.00, 0.00, 0.00, 0.00, 0.00, 0.000, 0.000, 0.000, 11:24:01.482, 1561476241482
170, -36584.11, -16342.08, 0.00, 0.00, 0.00, 0.00, 0.00, 0.00, 0.000, 0.000, 0.000, 11:24:01.483, 1561476241483
171, -36108.55, -15878.01, 0.00, 0.00, 0.00, 0.00, 0.00, 0.00, 0.000, 0.000, 0.000, 11:24:01.483, 1561476241483
172, -36850.85, -16593.33, 0.00, 0.00, 0.00, 0.00, 0.00, 0.00, 0.000, 0.000, 0.000, 11:24:01.483, 1561476241483
173, -37395.56, -17112.32, 0.00, 0.00, 0.00, 0.00, 0.00, 0.00, 0.000, 0.000, 0.000, 11:24:01.483, 1561476241483
174, -36725.97, -16466.66, 0.00, 0.00, 0.00, 0.00, 0.00, 0.00, 0.000, 0.000, 0.000, 11:24:01.483, 1561476241483
175, -36130.14, -15897.95, 0.00, 0.00, 0.00, 0.00, 0.00, 0.00, 0.000, 0.000, 0.000, 11:24:01.484, 1561476241484
176, -36818.84, -16565.28, 0.00, 0.00, 0.00, 0.00, 0.00, 0.00, 0.076, -0.034, 1.040, 11:24:01.484, 1561476241484
177, -37529.38, -17249.67, 0.00, 0.00, 0.00, 0.00, 0.00, 0.00, 0.000, 0.000, 0.000, 11:24:01.484, 1561476241484
178, -36950.07, -16692.77, 0.00, 0.00, 0.00, 0.00, 0.00, 0.00, 0.000, 0.000, 0.000, 11:24:01.484, 1561476241484
179, -36150.57, -15922.69, 0.00, 0.00, 0.00, 0.00, 0.00, 0.00, 0.000, 0.000, 0.000, 11:24:01.485, 1561476241485
180, -36582.32, -16338.48, 0.00, 0.00, 0.00, 0.00, 0.00, 0.00, 0.000, 0.000, 0.000, 11:24:01.485, 1561476241485
181, -37388.48, -17113.08, 0.00, 0.00, 0.00, 0.00, 0.00, 0.00, 0.000, 0.000, 0.000, 11:24:01.485, 1561476241485
182, -37069.50, -16803.50, 0.00, 0.00, 0.00, 0.00, 0.00, 0.00, 0.000, 0.000, 0.000, 11:24:01.485, 1561476241485
183, -36222.86, -15995.62, 0.00, 0.00, 0.00, 0.00, 0.00, 0.00, 0.000, 0.000, 0.000, 11:24:01.485, 1561476241485
184, -36462.67, -16221.17, 0.00, 0.00, 0.00, 0.00, 0.00, 0.00, 0.000, 0.000, 0.000, 11:24:01.486, 1561476241486
185, -37350.59, -17067.17, 0.00, 0.00, 0.00, 0.00, 0.00, 0.00, 0.000, 0.000, 0.000, 11:24:01.486, 1561476241486
186, -37193.19, -16918.62, 0.00, 0.00, 0.00, 0.00, 0.00, 0.00, 0.066, -0.034, 1.036, 11:24:01.486, 1561476241486
187, -36295.68, -16062.39, 0.00, 0.00, 0.00, 0.00, 0.00, 0.00, 0.000, 0.000, 0.000, 11:24:01.486, 1561476241486
188, -36344.43, -16111.25, 0.00, 0.00, 0.00, 0.00, 0.00, 0.00, 0.000, 0.000, 0.000, 11:24:01.486, 1561476241486
189, -37248.60, -16982.14, 0.00, 0.00, 0.00, 0.00, 0.00, 0.00, 0.000, 0.000, 0.000, 11:24:01.486, 1561476241486
190, -37322.76, -17045.42, 0.00, 0.00, 0.00, 0.00, 0.00, 0.00, 0.000, 0.000, 0.000, 11:24:01.486, 1561476241486
191, -36411.35, -16168.85, 0.00, 0.00, 0.00, 0.00, 0.00, 0.00, 0.000, 0.000, 0.000, 11:24:01.486, 1561476241486
192, -36217.80, -15986.41, 0.00, 0.00, 0.00, 0.00, 0.00, 0.00, 0.000, 0.000, 0.000, 11:24:01.487, 1561476241487
193, -37097.34, -16833.59, 0.00, 0.00, 0.00, 0.00, 0.00, 0.00, 0.000, 0.000, 0.000, 11:24:01.950, 1561476241950
194, -37428.57, -17153.44, 0.00, 0.00, 0.00, 0.00, 0.00, 0.00, 0.000, 0.000, 0.000, 11:24:01.950, 1561476241950
195, -36594.34, -16346.95, 0.00, 0.00, 0.00, 0.00, 0.00, 0.00, 0.000, 0.000, 0.000, 11:24:01.950, 1561476241950
196, -36128.49, -15896.94, 0.00, 0.00, 0.00, 0.00, 0.00, 0.00, 0.068, -0.040, 1.030, 11:24:01.950, 1561476241950
197, -36883.73, -16621.40, 0.00, 0.00, 0.00, 0.00, 0.00, 0.00, 0.000, 0.000, 0.000, 11:24:01.950, 1561476241950
198, -37458.59, -17172.62, 0.00, 0.00, 0.00, 0.00, 0.00, 0.00, 0.000, 0.000, 0.000, 11:24:01.950, 1561476241950
199, -36739.81, -16485.10, 0.00, 0.00, 0.00, 0.00, 0.00, 0.00, 0.000, 0.000, 0.000, 11:24:01.950, 1561476241950
200, -36106.16, -15865.98, 0.00, 0.00, 0.00, 0.00, 0.00, 0.00, 0.000, 0.000, 0.000, 11:24:01.950, 1561476241950
201, -36752.32, -16483.79, 0.00, 0.00, 0.00, 0.00, 0.00, 0.00, 0.000, 0.000, 0.000, 11:24:01.950, 1561476241950
202, -37486.09, -17193.32, 0.00, 0.00, 0.00, 0.00, 0.00, 0.00, 0.000, 0.000, 0.000, 11:24:01.951, 1561476241951
203, -36905.50, -16635.22, 0.00, 0.00, 0.00, 0.00, 0.00, 0.00, 0.000, 0.000, 0.000, 11:24:01.951, 1561476241951
204, -36114.52, -15882.55, 0.00, 0.00, 0.00, 0.00, 0.00, 0.00, 0.000, 0.000, 0.000, 11:24:01.951, 1561476241951
205, -36584.11, -16337.49, 0.00, 0.00, 0.00, 0.00, 0.00, 0.00, 0.000, 0.000, 0.000, 11:24:01.951, 1561476241951
206, -37447.13, -17157.38, 0.00, 0.00, 0.00, 0.00, 0.00, 0.00, 0.076, -0.042, 1.028, 11:24:01.951, 1561476241951
207, -37064.55, -16794.21, 0.00, 0.00, 0.00, 0.00, 0.00, 0.00, 0.000, 0.000, 0.000, 11:24:01.951, 1561476241951
208, -36189.53, -15949.53, 0.00, 0.00, 0.00, 0.00, 0.00, 0.00, 0.000, 0.000, 0.000, 11:24:01.951, 1561476241951
209, -36441.48, -16179.62, 0.00, 0.00, 0.00, 0.00, 0.00, 0.00, 0.000, 0.000, 0.000, 11:24:01.951, 1561476241951
210, -37354.82, -17057.33, 0.00, 0.00, 0.00, 0.00, 0.00, 0.00, 0.000, 0.000, 0.000, 11:24:01.951, 1561476241951
211, -37244.84, -16948.63, 0.00, 0.00, 0.00, 0.00, 0.00, 0.00, 0.000, 0.000, 0.000, 11:24:01.951, 1561476241951
212, -36334.64, -16082.79, 0.00, 0.00, 0.00, 0.00, 0.00, 0.00, 0.000, 0.000, 0.000, 11:24:01.951, 1561476241951
213, -36365.53, -16119.76, 0.00, 0.00, 0.00, 0.00, 0.00, 0.00, 0.000, 0.000, 0.000, 11:24:01.951, 1561476241951
214, -37248.87, -16965.02, 0.00, 0.00, 0.00, 0.00, 0.00, 0.00, 0.000, 0.000, 0.000, 11:24:01.951, 1561476241951
215, -37292.92, -17007.13, 0.00, 0.00, 0.00, 0.00, 0.00, 0.00, 0.000, 0.000, 0.000, 11:24:01.951, 1561476241951
216, -36367.49, -16116.61, 0.00, 0.00, 0.00, 0.00, 0.00, 0.00, 0.078, -0.044, 1.034, 11:24:01.951, 1561476241951
217, -36160.54, -15923.00, 0.00, 0.00, 0.00, 0.00, 0.00, 0.00, 0.000, 0.000, 0.000, 11:24:01.951, 1561476241951
218, -37080.22, -16803.64, 0.00, 0.00, 0.00, 0.00, 0.00, 0.00, 0.000, 0.000, 0.000, 11:24:01.952, 1561476241952
219, -37461.10, -17161.38, 0.00, 0.00, 0.00, 0.00, 0.00, 0.00, 0.000, 0.000, 0.000, 11:24:01.952, 1561476241952
220, -36599.28, -16333.29, 0.00, 0.00, 0.00, 0.00, 0.00, 0.00, 0.000, 0.000, 0.000, 11:24:01.952, 1561476241952
221, -36151.33, -15905.32, 0.00, 0.00, 0.00, 0.00, 0.00, 0.00, 0.000, 0.000, 0.000, 11:24:01.952, 1561476241952
222, -36940.13, -16668.70, 0.00, 0.00, 0.00, 0.00, 0.00, 0.00, 0.000, 0.000, 0.000, 11:24:01.952, 1561476241952
223, -37459.04, -17169.09, 0.00, 0.00, 0.00, 0.00, 0.00, 0.00, 0.000, 0.000, 0.000, 11:24:01.952, 1561476241952
224, -36726.51, -16470.62, 0.00, 0.00, 0.00, 0.00, 0.00, 0.00, 0.000, 0.000, 0.000, 11:24:01.952, 1561476241952
225, -36101.20, -15864.91, 0.00, 0.00, 0.00, 0.00, 0.00, 0.00, 0.000, 0.000, 0.000, 11:24:01.952, 1561476241952
226, -36783.53, -16507.50, 0.00, 0.00, 0.00, 0.00, 0.00, 0.00, 0.072, -0.042, 1.034, 11:24:01.952, 1561476241952
227, -37498.34, -17194.91, 0.00, 0.00, 0.00, 0.00, 0.00, 0.00, 0.000, 0.000, 0.000, 11:24:01.952, 1561476241952
228, -36887.24, -16615.91, 0.00, 0.00, 0.00, 0.00, 0.00, 0.00, 0.000, 0.000, 0.000, 11:24:01.952, 1561476241952
229, -36067.02, -15833.24, 0.00, 0.00, 0.00, 0.00, 0.00, 0.00, 0.000, 0.000, 0.000, 11:24:01.952, 1561476241952
230, -36552.41, -16301.84, 0.00, 0.00, 0.00, 0.00, 0.00, 0.00, 0.000, 0.000, 0.000, 11:24:01.952, 1561476241952
231, -37429.70, -17135.83, 0.00, 0.00, 0.00, 0.00, 0.00, 0.00, 0.000, 0.000, 0.000, 11:24:01.952, 1561476241952
232, -37099.13, -16817.18, 0.00, 0.00, 0.00, 0.00, 0.00, 0.00, 0.000, 0.000, 0.000, 11:24:01.952, 1561476241952
233, -36222.45, -15972.80, 0.00, 0.00, 0.00, 0.00, 0.00, 0.00, 0.000, 0.000, 0.000, 11:24:01.952, 1561476241952
234, -36484.86, -16216.06, 0.00, 0.00, 0.00, 0.00, 0.00, 0.00, 0.000, 0.000, 0.000, 11:24:01.952, 1561476241952
235, -37380.90, -17078.88, 0.00, 0.00, 0.00, 0.00, 0.00, 0.00, 0.000, 0.000, 0.000, 11:24:01.953, 1561476241953
236, -37199.07, -16910.50, 0.00, 0.00, 0.00, 0.00, 0.00, 0.00, 0.000, 0.000, 0.000, 11:24:01.953, 1561476241953
237, -36275.89, -16040.10, 0.00, 0.00, 0.00, 0.00, 0.00, 0.00, 0.072, -0.038, 1.036, 11:24:01.953, 1561476241953
238, -36338.37, -16105.37, 0.00, 0.00, 0.00, 0.00, 0.00, 0.00, 0.000, 0.000, 0.000, 11:24:01.953, 1561476241953
239, -37273.59, -16979.70, 0.00, 0.00, 0.00, 0.00, 0.00, 0.00, 0.000, 0.000, 0.000, 11:24:01.953, 1561476241953
240, -37356.49, -17039.61, 0.00, 0.00, 0.00, 0.00, 0.00, 0.00, 0.000, 0.000, 0.000, 11:24:01.953, 1561476241953
241, -36459.72, -16182.04, 0.00, 0.00, 0.00, 0.00, 0.00, 0.00, 0.000, 0.000, 0.000, 11:24:01.953, 1561476241953
242, -36241.32, -15983.20, 0.00, 0.00, 0.00, 0.00, 0.00, 0.00, 0.000, 0.000, 0.000, 11:24:01.953, 1561476241953
243, -37089.43, -16797.38, 0.00, 0.00, 0.00, 0.00, 0.00, 0.00, 0.000, 0.000, 0.000, 11:24:01.953, 1561476241953
244, -37406.07, -17103.35, 0.00, 0.00, 0.00, 0.00, 0.00, 0.00, 0.000, 0.000, 0.000, 11:24:01.953, 1561476241953
245, -36540.95, -16271.98, 0.00, 0.00, 0.00, 0.00, 0.00, 0.00, 0.000, 0.000, 0.000, 11:24:01.953, 1561476241953
246, -36119.59, -15869.45, 0.00, 0.00, 0.00, 0.00, 0.00, 0.00, 0.000, 0.000, 0.000, 11:24:01.953, 1561476241953
247, -36935.16, -16660.70, 0.00, 0.00, 0.00, 0.00, 0.00, 0.00, 0.074, -0.038, 1.028, 11:24:01.953, 1561476241953
248, -37500.21, -17199.76, 0.00, 0.00, 0.00, 0.00, 0.00, 0.00, 0.000, 0.000, 0.000, 11:24:01.953, 1561476241953
249, -36782.14, -16505.27, 0.00, 0.00, 0.00, 0.00, 0.00, 0.00, 0.000, 0.000, 0.000, 11:24:01.953, 1561476241953
250, -36142.41, -15891.58, 0.00, 0.00, 0.00, 0.00, 0.00, 0.00, 0.000, 0.000, 0.000, 11:24:01.953, 1561476241953
251, -36771.95, -16504.79, 0.00, 0.00, 0.00, 0.00, 0.00, 0.00, 0.000, 0.000, 0.000, 11:24:01.953, 1561476241953
252, -37447.73, -17153.53, 0.00, 0.00, 0.00, 0.00, 0.00, 0.00, 0.000, 0.000, 0.000, 11:24:01.954, 1561476241954
253, -36868.22, -16586.25, 0.00, 0.00, 0.00, 0.00, 0.00, 0.00, 0.000, 0.000, 0.000, 11:24:01.954, 1561476241954
254, -36140.45, -15883.91, 0.00, 0.00, 0.00, 0.00, 0.00, 0.00, 0.000, 0.000, 0.000, 11:24:01.954, 1561476241954
255, -36631.18, -16355.02, 0.00, 0.00, 0.00, 0.00, 0.00, 0.00, 0.000, 0.000, 0.000, 11:24:01.954, 1561476241954
0, -37426.74, -17122.29, 0.00, 0.00, 0.00, 0.00, 0.00, 0.00, 0.000, 0.000, 0.000, 11:24:01.954, 1561476241954
1, -37067.59, -16778.40, 0.00, 0.00, 0.00, 0.00, 0.00, 0.00, 0.076, -0.034, 1.026, 11:24:01.954, 1561476241954
2, -36177.77, -15928.77, 0.00, 0.00, 0.00, 0.00, 0.00, 0.00, 0.000, 0.000, 0.000, 11:24:01.954, 1561476241954
3, -36419.20, -16169.97, 0.00, 0.00, 0.00, 0.00, 0.00, 0.00, 0.000, 0.000, 0.000, 11:24:01.954, 1561476241954
4, -37365.32, -17068.30, 0.00, 0.00, 0.00, 0.00, 0.00, 0.00, 0.000, 0.000, 0.000, 11:24:01.954, 1561476241954
5, -37236.84, -16939.80, 0.00, 0.00, 0.00, 0.00, 0.00, 0.00, 0.000, 0.000, 0.000, 11:24:01.954, 1561476241954
6, -36332.16, -16071.60, 0.00, 0.00, 0.00, 0.00, 0.00, 0.00, 0.000, 0.000, 0.000, 11:24:01.954, 1561476241954
7, -36345.59, -16087.27, 0.00, 0.00, 0.00, 0.00, 0.00, 0.00, 0.000, 0.000, 0.000, 11:24:01.954, 1561476241954
8, -37274.13, -16975.05, 0.00, 0.00, 0.00, 0.00, 0.00, 0.00, 0.000, 0.000, 0.000, 11:24:01.954, 1561476241954
9, -37365.32, -17053.75, 0.00, 0.00, 0.00, 0.00, 0.00, 0.00, 0.000, 0.000, 0.000, 11:24:01.954, 1561476241954
10, -36455.52, -16178.68, 0.00, 0.00, 0.00, 0.00, 0.00, 0.00, 0.000, 0.000, 0.000, 11:24:01.954, 1561476241954
11, -36240.69, -15981.14, 0.00, 0.00, 0.00, 0.00, 0.00, 0.00, 0.078, -0.038, 1.030, 11:24:01.954, 1561476241954
12, -37093.39, -16801.74, 0.00, 0.00, 0.00, 0.00, 0.00, 0.00, 0.000, 0.000, 0.000, 11:24:01.954, 1561476241954
13, -37420.69, -17113.10, 0.00, 0.00, 0.00, 0.00, 0.00, 0.00, 0.000, 0.000, 0.000, 11:24:01.955, 1561476241955
14, -36587.75, -16314.18, 0.00, 0.00, 0.00, 0.00, 0.00, 0.00, 0.000, 0.000, 0.000, 11:24:01.955, 1561476241955
15, -36158.10, -15906.75, 0.00, 0.00, 0.00, 0.00, 0.00, 0.00, 0.000, 0.000, 0.000, 11:24:01.955, 1561476241955
16, -36947.34, -16664.61, 0.00, 0.00, 0.00, 0.00, 0.00, 0.00, 0.000, 0.000, 0.000, 11:24:01.955, 1561476241955
17, -37517.29, -17206.48, 0.00, 0.00, 0.00, 0.00, 0.00, 0.00, 0.000, 0.000, 0.000, 11:24:01.955, 1561476241955
18, -36780.09, -16499.86, 0.00, 0.00, 0.00, 0.00, 0.00, 0.00, 0.000, 0.000, 0.000, 11:24:01.955, 1561476241955
19, -36147.22, -15896.94, 0.00, 0.00, 0.00, 0.00, 0.00, 0.00, 0.000, 0.000, 0.000, 11:24:01.955, 1561476241955
20, -36798.84, -16518.54, 0.00, 0.00, 0.00, 0.00, 0.00, 0.00, 0.000, 0.000, 0.000, 11:24:01.955, 1561476241955
21, -37497.04, -17181.70, 0.00, 0.00, 0.00, 0.00, 0.00, 0.00, 0.074, -0.038, 1.028, 11:24:01.955, 1561476241955
22, -36912.30, -16621.72, 0.00, 0.00, 0.00, 0.00, 0.00, 0.00, 0.000, 0.000, 0.000, 11:24:01.955, 1561476241955
23, -36168.90, -15913.44, 0.00, 0.00, 0.00, 0.00, 0.00, 0.00, 0.000, 0.000, 0.000, 11:24:01.955, 1561476241955
24, -36643.76, -16370.44, 0.00, 0.00, 0.00, 0.00, 0.00, 0.00, 0.000, 0.000, 0.000, 11:24:01.955, 1561476241955
25, -37463.40, -17149.46, 0.00, 0.00, 0.00, 0.00, 0.00, 0.00, 0.000, 0.000, 0.000, 11:24:01.955, 1561476241955
26, -37104.14, -16800.42, 0.00, 0.00, 0.00, 0.00, 0.00, 0.00, 0.000, 0.000, 0.000, 11:24:01.955, 1561476241955
27, -36225.56, -15953.94, 0.00, 0.00, 0.00, 0.00, 0.00, 0.00, 0.000, 0.000, 0.000, 11:24:01.956, 1561476241956
28, -36496.96, -16211.97, 0.00, 0.00, 0.00, 0.00, 0.00, 0.00, 0.000, 0.000, 0.000, 11:24:01.956, 1561476241956
29, -37419.75, -17107.67, 0.00, 0.00, 0.00, 0.00, 0.00, 0.00, 0.000, 0.000, 0.000, 11:24:01.956, 1561476241956
30, -37280.27, -16980.71, 0.00, 0.00, 0.00, 0.00, 0.00, 0.00, 0.000, 0.000, 0.000, 11:24:01.956, 1561476241956
31, -36333.25, -16077.32, 0.00, 0.00, 0.00, 0.00, 0.00, 0.00, 0.000, 0.000, 0.000, 11:24:01.956, 1561476241956
32, -36355.83, -16089.03, 0.00, 0.00, 0.00, 0.00, 0.00, 0.00, 0.076, -0.040, 1.022, 11:24:01.956, 1561476241956
33, -37285.28, -16975.79, 0.00, 0.00, 0.00, 0.00, 0.00, 0.00, 0.000, 0.000, 0.000, 11:24:01.956, 1561476241956
34, -37348.54, -17038.91, 0.00, 0.00, 0.00, 0.00, 0.00, 0.00, 0.000, 0.000, 0.000, 11:24:01.956, 1561476241956
35, -36466.40, -16191.54, 0.00, 0.00, 0.00, 0.00, 0.00, 0.00, 0.000, 0.000, 0.000, 11:24:01.956, 1561476241956
36, -36265.79, -15997.41, 0.00, 0.00, 0.00, 0.00, 0.00, 0.00, 0.000, 0.000, 0.000, 11:24:01.956, 1561476241956
37, -37147.55, -16842.42, 0.00, 0.00, 0.00, 0.00, 0.00, 0.00, 0.000, 0.000, 0.000, 11:24:01.956, 1561476241956
38, -37497.75, -17176.15, 0.00, 0.00, 0.00, 0.00, 0.00, 0.00, 0.000, 0.000, 0.000, 11:24:01.956, 1561476241956
39, -36670.94, -16382.60, 0.00, 0.00, 0.00, 0.00, 0.00, 0.00, 0.000, 0.000, 0.000, 11:24:01.956, 1561476241956
40, -36198.74, -15935.16, 0.00, 0.00, 0.00, 0.00, 0.00, 0.00, 0.000, 0.000, 0.000, 11:24:01.957, 1561476241957
41, -36951.01, -16665.84, 0.00, 0.00, 0.00, 0.00, 0.00, 0.00, 0.000, 0.000, 0.000, 11:24:01.957, 1561476241957
42, -37473.68, -17166.99, 0.00, 0.00, 0.00, 0.00, 0.00, 0.00, 0.076, -0.038, 1.036, 11:24:01.957, 1561476241957
43, -36775.88, -16493.29, 0.00, 0.00, 0.00, 0.00, 0.00, 0.00, 0.000, 0.000, 0.000, 11:24:01.957, 1561476241957
44, -36195.27, -15934.13, 0.00, 0.00, 0.00, 0.00, 0.00, 0.00, 0.000, 0.000, 0.000, 11:24:01.957, 1561476241957
45, -36869.54, -16579.21, 0.00, 0.00, 0.00, 0.00, 0.00, 0.00, 0.000, 0.000, 0.000, 11:24:01.957, 1561476241957
46, -37576.05, -17253.76, 0.00, 0.00, 0.00, 0.00, 0.00, 0.00, 0.000, 0.000, 0.000, 11:24:01.957, 1561476241957
47, -36981.27, -16684.15, 0.00, 0.00, 0.00, 0.00, 0.00, 0.00, 0.000, 0.000, 0.000, 11:24:01.957, 1561476241957
