%OpenBCI Raw EEG Data
%Number of channels = 8
%Sample Rate = 250.0 Hz
%First Column = SampleIndex
%Last Column = Timestamp 
%Other Columns = EEG data in microvolts followed by Accel Data (in G) interleaved with Aux Data
0, -34446.09, 0.00, 0.00, 0.00, 0.00, 0.00, 0.00, 0.00, 0.026, -0.014, 0.514, 11:01:43.623, 1561474903623
1, -34005.99, 0.00, 0.00, 0.00, 0.00, 0.00, 0.00, 0.00, 0.000, 0.000, 0.000, 11:01:43.623, 1561474903623
2, -32851.34, 0.00, 0.00, 0.00, 0.00, 0.00, 0.00, 0.00, 0.000, 0.000, 0.000, 11:01:43.623, 1561474903623
3, -33143.43, 0.00, 0.00, 0.00, 0.00, 0.00, 0.00, 0.00, 0.000, 0.000, 0.000, 11:01:43.623, 1561474903623
4, -34349.02, 0.00, 0.00, 0.00, 0.00, 0.00, 0.00, 0.00, 0.000, 0.000, 0.000, 11:01:43.623, 1561474903623
5, -34203.44, 0.00, 0.00, 0.00, 0.00, 0.00, 0.00, 0.00, 0.000, 0.000, 0.000, 11:01:43.623, 1561474903623
6, -32976.85, 0.00, 0.00, 0.00, 0.00, 0.00, 0.00, 0.00, 0.000, 0.000, 0.000, 11:01:43.623, 1561474903623
7, -32958.59, 0.00, 0.00, 0.00, 0.00, 0.00, 0.00, 0.00, 0.038, -0.018, 0.764, 11:01:43.623, 1561474903623
8, -34181.65, 0.00, 0.00, 0.00, 0.00, 0.00, 0.00, 0.00, 0.000, 0.000, 0.000, 11:01:43.624, 1561474903624
9, -34371.75, 0.00, 0.00, 0.00, 0.00, 0.00, 0.00, 0.00, 0.000, 0.000, 0.000, 11:01:43.624, 1561474903624
10, -33170.68, 0.00, 0.00, 0.00, 0.00, 0.00, 0.00, 0.00, 0.000, 0.000, 0.000, 11:01:43.624, 1561474903624
11, -32829.61, 0.00, 0.00, 0.00, 0.00, 0.00, 0.00, 0.00, 0.000, 0.000, 0.000, 11:01:43.624, 1561474903624
12, -33990.92, 0.00, 0.00, 0.00, 0.00, 0.00, 0.00, 0.00, 0.000, 0.000, 0.000, 11:01:43.624, 1561474903624
13, -34471.33, 0.00, 0.00, 0.00, 0.00, 0.00, 0.00, 0.00, 0.000, 0.000, 0.000, 11:01:43.624, 1561474903624
14, -33369.28, 0.00, 0.00, 0.00, 0.00, 0.00, 0.00, 0.00, 0.000, 0.000, 0.000, 11:01:43.624, 1561474903624
15, -32748.21, 0.00, 0.00, 0.00, 0.00, 0.00, 0.00, 0.00, 0.000, 0.000, 0.000, 11:01:43.624, 1561474903624
16, -33785.38, 0.00, 0.00, 0.00, 0.00, 0.00, 0.00, 0.00, 0.000, 0.000, 0.000, 11:01:43.624, 1561474903624
17, -34542.43, 0.00, 0.00, 0.00, 0.00, 0.00, 0.00, 0.00, 0.054, -0.026, 0.898, 11:01:43.624, 1561474903624
18, -33587.05, 0.00, 0.00, 0.00, 0.00, 0.00, 0.00, 0.00, 0.000, 0.000, 0.000, 11:01:43.624, 1561474903624
19, -32702.95, 0.00, 0.00, 0.00, 0.00, 0.00, 0.00, 0.00, 0.000, 0.000, 0.000, 11:01:43.624, 1561474903624
20, -33541.72, 0.00, 0.00, 0.00, 0.00, 0.00, 0.00, 0.00, 0.000, 0.000, 0.000, 11:01:43.626, 1561474903626
21, -34511.92, 0.00, 0.00, 0.00, 0.00, 0.00, 0.00, 0.00, 0.000, 0.000, 0.000, 11:01:43.626, 1561474903626
22, -33809.38, 0.00, 0.00, 0.00, 0.00, 0.00, 0.00, 0.00, 0.000, 0.000, 0.000, 11:01:43.626, 1561474903626
23, -32749.98, 0.00, 0.00, 0.00, 0.00, 0.00, 0.00, 0.00, 0.000, 0.000, 0.000, 11:01:43.626, 1561474903626
24, -33329.16, 0.00, 0.00, 0.00, 0.00, 0.00, 0.00, 0.00, 0.000, 0.000, 0.000, 11:01:43.627, 1561474903627
25, -34475.64, 0.00, 0.00, 0.00, 0.00, 0.00, 0.00, 0.00, 0.000, 0.000, 0.000, 11:01:43.627, 1561474903627
26, -34025.61, 0.00, 0.00, 0.00, 0.00, 0.00, 0.00, 0.00, 0.000, 0.000, 0.000, 11:01:43.627, 1561474903627
27, -32855.52, 0.00, 0.00, 0.00, 0.00, 0.00, 0.00, 0.00, 0.060, -0.032, 0.974, 11:01:43.627, 1561474903627
28, -33129.06, 0.00, 0.00, 0.00, 0.00, 0.00, 0.00, 0.00, 0.000, 0.000, 0.000, 11:01:43.628, 1561474903628
29, -34353.04, 0.00, 0.00, 0.00, 0.00, 0.00, 0.00, 0.00, 0.000, 0.000, 0.000, 11:01:43.628, 1561474903628
30, -34241.17, 0.00, 0.00, 0.00, 0.00, 0.00, 0.00, 0.00, 0.000, 0.000, 0.000, 11:01:43.628, 1561474903628
31, -33007.38, 0.00, 0.00, 0.00, 0.00, 0.00, 0.00, 0.00, 0.000, 0.000, 0.000, 11:01:43.628, 1561474903628
32, -32975.01, 0.00, 0.00, 0.00, 0.00, 0.00, 0.00, 0.00, 0.000, 0.000, 0.000, 11:01:43.628, 1561474903628
33, -34217.39, 0.00, 0.00, 0.00, 0.00, 0.00, 0.00, 0.00, 0.000, 0.000, 0.000, 11:01:43.628, 1561474903628
34, -34407.54, 0.00, 0.00, 0.00, 0.00, 0.00, 0.00, 0.00, 0.000, 0.000, 0.000, 11:01:43.628, 1561474903628
35, -33194.15, 0.00, 0.00, 0.00, 0.00, 0.00, 0.00, 0.00, 0.000, 0.000, 0.000, 11:01:43.628, 1561474903628
36, -32855.32, 0.00, 0.00, 0.00, 0.00, 0.00, 0.00, 0.00, 0.000, 0.000, 0.000, 11:01:43.628, 1561474903628
37, -34029.57, 0.00, 0.00, 0.00, 0.00, 0.00, 0.00, 0.00, 0.000, 0.000, 0.000, 11:01:43.628, 1561474903628
38, -34496.47, 0.00, 0.00, 0.00, 0.00, 0.00, 0.00, 0.00, 0.064, -0.028, 1.004, 11:01:43.629, 1561474903629
39, -33373.95, 0.00, 0.00, 0.00, 0.00, 0.00, 0.00, 0.00, 0.000, 0.000, 0.000, 11:01:43.629, 1561474903629
40, -32739.36, 0.00, 0.00, 0.00, 0.00, 0.00, 0.00, 0.00, 0.000, 0.000, 0.000, 11:01:43.629, 1561474903629
41, -33769.68, 0.00, 0.00, 0.00, 0.00, 0.00, 0.00, 0.00, 0.000, 0.000, 0.000, 11:01:43.629, 1561474903629
42, -34518.07, 0.00, 0.00, 0.00, 0.00, 0.00, 0.00, 0.00, 0.000, 0.000, 0.000, 11:01:43.629, 1561474903629
43, -33596.70, 0.00, 0.00, 0.00, 0.00, 0.00, 0.00, 0.00, 0.000, 0.000, 0.000, 11:01:43.629, 1561474903629
44, -32753.82, 0.00, 0.00, 0.00, 0.00, 0.00, 0.00, 0.00, 0.000, 0.000, 0.000, 11:01:43.629, 1561474903629
45, -33624.98, 0.00, 0.00, 0.00, 0.00, 0.00, 0.00, 0.00, 0.000, 0.000, 0.000, 11:01:43.629, 1561474903629
46, -34614.74, 0.00, 0.00, 0.00, 0.00, 0.00, 0.00, 0.00, 0.000, 0.000, 0.000, 11:01:43.629, 1561474903629
47, -33895.95, 0.00, 0.00, 0.00, 0.00, 0.00, 0.00, 0.00, 0.000, 0.000, 0.000, 11:01:43.629, 1561474903629
48, -32807.96, 0.00, 0.00, 0.00, 0.00, 0.00, 0.00, 0.00, 0.062, -0.024, 1.022, 11:01:43.630, 1561474903630
49, -33384.88, 0.00, 0.00, 0.00, 0.00, 0.00, 0.00, 0.00, 0.000, 0.000, 0.000, 11:01:43.630, 1561474903630
50, -34500.97, 0.00, 0.00, 0.00, 0.00, 0.00, 0.00, 0.00, 0.000, 0.000, 0.000, 11:01:43.630, 1561474903630
51, -34051.07, 0.00, 0.00, 0.00, 0.00, 0.00, 0.00, 0.00, 0.000, 0.000, 0.000, 11:01:43.630, 1561474903630
52, -32889.70, 0.00, 0.00, 0.00, 0.00, 0.00, 0.00, 0.00, 0.000, 0.000, 0.000, 11:01:43.630, 1561474903630
53, -33183.60, 0.00, 0.00, 0.00, 0.00, 0.00, 0.00, 0.00, 0.000, 0.000, 0.000, 11:01:43.630, 1561474903630
54, -34386.62, 0.00, 0.00, 0.00, 0.00, 0.00, 0.00, 0.00, 0.000, 0.000, 0.000, 11:01:43.630, 1561474903630
55, -34247.74, 0.00, 0.00, 0.00, 0.00, 0.00, 0.00, 0.00, 0.000, 0.000, 0.000, 11:01:43.630, 1561474903630
56, -33022.96, 0.00, 0.00, 0.00, 0.00, 0.00, 0.00, 0.00, 0.000, 0.000, 0.000, 11:01:43.630, 1561474903630
57, -32975.21, 0.00, 0.00, 0.00, 0.00, 0.00, 0.00, 0.00, 0.000, 0.000, 0.000, 11:01:43.630, 1561474903630
58, -34186.63, 0.00, 0.00, 0.00, 0.00, 0.00, 0.00, 0.00, 0.068, -0.024, 1.032, 11:01:43.631, 1561474903631
59, -34376.24, 0.00, 0.00, 0.00, 0.00, 0.00, 0.00, 0.00, 0.000, 0.000, 0.000, 11:01:43.631, 1561474903631
60, -33184.61, 0.00, 0.00, 0.00, 0.00, 0.00, 0.00, 0.00, 0.000, 0.000, 0.000, 11:01:43.631, 1561474903631
61, -32855.54, 0.00, 0.00, 0.00, 0.00, 0.00, 0.00, 0.00, 0.000, 0.000, 0.000, 11:01:43.631, 1561474903631
62, -34036.36, 0.00, 0.00, 0.00, 0.00, 0.00, 0.00, 0.00, 0.000, 0.000, 0.000, 11:01:43.631, 1561474903631
63, -34501.97, 0.00, 0.00, 0.00, 0.00, 0.00, 0.00, 0.00, 0.000, 0.000, 0.000, 11:01:43.631, 1561474903631
64, -33376.05, 0.00, 0.00, 0.00, 0.00, 0.00, 0.00, 0.00, 0.000, 0.000, 0.000, 11:01:43.631, 1561474903631
65, -32751.23, 0.00, 0.00, 0.00, 0.00, 0.00, 0.00, 0.00, 0.000, 0.000, 0.000, 11:01:43.631, 1561474903631
66, -33817.00, 0.00, 0.00, 0.00, 0.00, 0.00, 0.00, 0.00, 0.000, 0.000, 0.000, 11:01:43.631, 1561474903631
67, -34615.34, 0.00, 0.00, 0.00, 0.00, 0.00, 0.00, 0.00, 0.000, 0.000, 0.000, 11:01:43.656, 1561474903656
68, -33662.31, 0.00, 0.00, 0.00, 0.00, 0.00, 0.00, 0.00, 0.064, -0.026, 1.030, 11:01:43.656, 1561474903656
69, -32786.48, 0.00, 0.00, 0.00, 0.00, 0.00, 0.00, 0.00, 0.000, 0.000, 0.000, 11:01:43.656, 1561474903656
70, -33616.55, 0.00, 0.00, 0.00, 0.00, 0.00, 0.00, 0.00, 0.000, 0.000, 0.000, 11:01:43.657, 1561474903657
71, -34577.45, 0.00, 0.00, 0.00, 0.00, 0.00, 0.00, 0.00, 0.000, 0.000, 0.000, 11:01:43.657, 1561474903657
72, -33867.88, 0.00, 0.00, 0.00, 0.00, 0.00, 0.00, 0.00, 0.000, 0.000, 0.000, 11:01:43.657, 1561474903657
73, -32804.96, 0.00, 0.00, 0.00, 0.00, 0.00, 0.00, 0.00, 0.000, 0.000, 0.000, 11:01:43.657, 1561474903657
74, -33368.45, 0.00, 0.00, 0.00, 0.00, 0.00, 0.00, 0.00, 0.000, 0.000, 0.000, 11:01:43.657, 1561474903657
75, -34502.13, 0.00, 0.00, 0.00, 0.00, 0.00, 0.00, 0.00, 0.000, 0.000, 0.000, 11:01:43.657, 1561474903657
76, -34078.30, 0.00, 0.00, 0.00, 0.00, 0.00, 0.00, 0.00, 0.000, 0.000, 0.000, 11:01:43.657, 1561474903657
77, -32894.43, 0.00, 0.00, 0.00, 0.00, 0.00, 0.00, 0.00, 0.000, 0.000, 0.000, 11:01:43.658, 1561474903658
78, -33181.03, 0.00, 0.00, 0.00, 0.00, 0.00, 0.00, 0.00, 0.068, -0.028, 1.030, 11:01:43.659, 1561474903659
79, -34376.04, 0.00, 0.00, 0.00, 0.00, 0.00, 0.00, 0.00, 0.000, 0.000, 0.000, 11:01:43.659, 1561474903659
80, -34243.56, 0.00, 0.00, 0.00, 0.00, 0.00, 0.00, 0.00, 0.000, 0.000, 0.000, 11:01:43.659, 1561474903659
81, -33030.51, 0.00, 0.00, 0.00, 0.00, 0.00, 0.00, 0.00, 0.000, 0.000, 0.000, 11:01:43.659, 1561474903659
82, -32996.38, 0.00, 0.00, 0.00, 0.00, 0.00, 0.00, 0.00, 0.000, 0.000, 0.000, 11:01:43.660, 1561474903660
83, -34220.61, 0.00, 0.00, 0.00, 0.00, 0.00, 0.00, 0.00, 0.000, 0.000, 0.000, 11:01:43.660, 1561474903660
84, -34421.62, 0.00, 0.00, 0.00, 0.00, 0.00, 0.00, 0.00, 0.000, 0.000, 0.000, 11:01:43.660, 1561474903660
85, -33213.82, 0.00, 0.00, 0.00, 0.00, 0.00, 0.00, 0.00, 0.000, 0.000, 0.000, 11:01:43.660, 1561474903660
86, -32847.47, 0.00, 0.00, 0.00, 0.00, 0.00, 0.00, 0.00, 0.000, 0.000, 0.000, 11:01:43.660, 1561474903660
87, -34014.57, 0.00, 0.00, 0.00, 0.00, 0.00, 0.00, 0.00, 0.000, 0.000, 0.000, 11:01:43.660, 1561474903660
88, -34514.87, 0.00, 0.00, 0.00, 0.00, 0.00, 0.00, 0.00, 0.064, -0.026, 1.034, 11:01:43.660, 1561474903660
89, -33423.32, 0.00, 0.00, 0.00, 0.00, 0.00, 0.00, 0.00, 0.000, 0.000, 0.000, 11:01:43.660, 1561474903660
90, -32826.35, 0.00, 0.00, 0.00, 0.00, 0.00, 0.00, 0.00, 0.000, 0.000, 0.000, 11:01:43.660, 1561474903660
91, -33832.23, 0.00, 0.00, 0.00, 0.00, 0.00, 0.00, 0.00, 0.000, 0.000, 0.000, 11:01:43.660, 1561474903660
92, -34548.55, 0.00, 0.00, 0.00, 0.00, 0.00, 0.00, 0.00, 0.000, 0.000, 0.000, 11:01:43.660, 1561474903660
93, -33610.12, 0.00, 0.00, 0.00, 0.00, 0.00, 0.00, 0.00, 0.000, 0.000, 0.000, 11:01:43.660, 1561474903660
94, -32768.37, 0.00, 0.00, 0.00, 0.00, 0.00, 0.00, 0.00, 0.000, 0.000, 0.000, 11:01:43.660, 1561474903660
95, -33604.21, 0.00, 0.00, 0.00, 0.00, 0.00, 0.00, 0.00, 0.000, 0.000, 0.000, 11:01:43.660, 1561474903660
96, -34562.93, 0.00, 0.00, 0.00, 0.00, 0.00, 0.00, 0.00, 0.000, 0.000, 0.000, 11:01:43.660, 1561474903660
97, -33878.36, 0.00, 0.00, 0.00, 0.00, 0.00, 0.00, 0.00, 0.000, 0.000, 0.000, 11:01:43.660, 1561474903660
98, -32824.56, 0.00, 0.00, 0.00, 0.00, 0.00, 0.00, 0.00, 0.000, 0.000, 0.000, 11:01:43.660, 1561474903660
99, -33404.61, 0.00, 0.00, 0.00, 0.00, 0.00, 0.00, 0.00, 0.058, -0.028, 1.026, 11:01:43.660, 1561474903660
100, -34519.54, 0.00, 0.00, 0.00, 0.00, 0.00, 0.00, 0.00, 0.000, 0.000, 0.000, 11:01:43.661, 1561474903661
101, -34084.22, 0.00, 0.00, 0.00, 0.00, 0.00, 0.00, 0.00, 0.000, 0.000, 0.000, 11:01:43.661, 1561474903661
102, -32929.91, 0.00, 0.00, 0.00, 0.00, 0.00, 0.00, 0.00, 0.000, 0.000, 0.000, 11:01:43.661, 1561474903661
103, -33214.45, 0.00, 0.00, 0.00, 0.00, 0.00, 0.00, 0.00, 0.000, 0.000, 0.000, 11:01:43.661, 1561474903661
104, -34418.15, 0.00, 0.00, 0.00, 0.00, 0.00, 0.00, 0.00, 0.000, 0.000, 0.000, 11:01:43.661, 1561474903661
105, -34295.84, 0.00, 0.00, 0.00, 0.00, 0.00, 0.00, 0.00, 0.000, 0.000, 0.000, 11:01:43.661, 1561474903661
106, -33053.18, 0.00, 0.00, 0.00, 0.00, 0.00, 0.00, 0.00, 0.000, 0.000, 0.000, 11:01:43.661, 1561474903661
107, -33009.48, 0.00, 0.00, 0.00, 0.00, 0.00, 0.00, 0.00, 0.000, 0.000, 0.000, 11:01:43.661, 1561474903661
108, -34236.77, 0.00, 0.00, 0.00, 0.00, 0.00, 0.00, 0.00, 0.000, 0.000, 0.000, 11:01:43.661, 1561474903661
109, -34425.69, 0.00, 0.00, 0.00, 0.00, 0.00, 0.00, 0.00, 0.056, -0.030, 1.034, 11:01:43.661, 1561474903661
110, -33231.16, 0.00, 0.00, 0.00, 0.00, 0.00, 0.00, 0.00, 0.000, 0.000, 0.000, 11:01:43.661, 1561474903661
111, -32890.39, 0.00, 0.00, 0.00, 0.00, 0.00, 0.00, 0.00, 0.000, 0.000, 0.000, 11:01:43.661, 1561474903661
112, -34050.40, 0.00, 0.00, 0.00, 0.00, 0.00, 0.00, 0.00, 0.000, 0.000, 0.000, 11:01:43.661, 1561474903661
113, -34537.04, 0.00, 0.00, 0.00, 0.00, 0.00, 0.00, 0.00, 0.000, 0.000, 0.000, 11:01:43.661, 1561474903661
114, -33426.03, 0.00, 0.00, 0.00, 0.00, 0.00, 0.00, 0.00, 0.000, 0.000, 0.000, 11:01:43.661, 1561474903661
115, -32791.06, 0.00, 0.00, 0.00, 0.00, 0.00, 0.00, 0.00, 0.000, 0.000, 0.000, 11:01:43.661, 1561474903661
116, -33831.82, 0.00, 0.00, 0.00, 0.00, 0.00, 0.00, 0.00, 0.000, 0.000, 0.000, 11:01:43.661, 1561474903661
117, -34612.48, 0.00, 0.00, 0.00, 0.00, 0.00, 0.00, 0.00, 0.000, 0.000, 0.000, 11:01:43.661, 1561474903661
118, -33682.07, 0.00, 0.00, 0.00, 0.00, 0.00, 0.00, 0.00, 0.000, 0.000, 0.000, 11:01:43.661, 1561474903661
119, -32796.40, 0.00, 0.00, 0.00, 0.00, 0.00, 0.00, 0.00, 0.056, -0.032, 1.038, 11:01:43.661, 1561474903661
120, -33619.82, 0.00, 0.00, 0.00, 0.00, 0.00, 0.00, 0.00, 0.000, 0.000, 0.000, 11:01:44.175, 1561474904175
121, -34592.70, 0.00, 0.00, 0.00, 0.00, 0.00, 0.00, 0.00, 0.000, 0.000, 0.000, 11:01:44.175, 1561474904175
122, -33894.59, 0.00, 0.00, 0.00, 0.00, 0.00, 0.00, 0.00, 0.000, 0.000, 0.000, 11:01:44.176, 1561474904176
123, -32825.68, 0.00, 0.00, 0.00, 0.00, 0.00, 0.00, 0.00, 0.000, 0.000, 0.000, 11:01:44.176, 1561474904176
124, -33398.67, 0.00, 0.00, 0.00, 0.00, 0.00, 0.00, 0.00, 0.000, 0.000, 0.000, 11:01:44.176, 1561474904176
125, -34529.49, 0.00, 0.00, 0.00, 0.00, 0.00, 0.00, 0.00, 0.000, 0.000, 0.000, 11:01:44.176, 1561474904176
126, -34090.48, 0.00, 0.00, 0.00, 0.00, 0.00, 0.00, 0.00, 0.000, 0.000, 0.000, 11:01:44.176, 1561474904176
127, -32920.41, 0.00, 0.00, 0.00, 0.00, 0.00, 0.00, 0.00, 0.000, 0.000, 0.000, 11:01:44.176, 1561474904176
128, -33204.83, 0.00, 0.00, 0.00, 0.00, 0.00, 0.00, 0.00, 0.000, 0.000, 0.000, 11:01:44.176, 1561474904176
129, -34412.97, 0.00, 0.00, 0.00, 0.00, 0.00, 0.00, 0.00, 0.060, -0.030, 1.036, 11:01:44.176, 1561474904176
130, -34297.23, 0.00, 0.00, 0.00, 0.00, 0.00, 0.00, 0.00, 0.000, 0.000, 0.000, 11:01:44.176, 1561474904176
131, -33091.85, 0.00, 0.00, 0.00, 0.00, 0.00, 0.00, 0.00, 0.000, 0.000, 0.000, 11:01:44.176, 1561474904176
132, -33031.03, 0.00, 0.00, 0.00, 0.00, 0.00, 0.00, 0.00, 0.000, 0.000, 0.000, 11:01:44.177, 1561474904177
133, -34247.03, 0.00, 0.00, 0.00, 0.00, 0.00, 0.00, 0.00, 0.000, 0.000, 0.000, 11:01:44.177, 1561474904177
134, -34441.11, 0.00, 0.00, 0.00, 0.00, 0.00, 0.00, 0.00, 0.000, 0.000, 0.000, 11:01:44.177, 1561474904177
135, -33251.73, 0.00, 0.00, 0.00, 0.00, 0.00, 0.00, 0.00, 0.000, 0.000, 0.000, 11:01:44.177, 1561474904177
136, -32910.28, 0.00, 0.00, 0.00, 0.00, 0.00, 0.00, 0.00, 0.000, 0.000, 0.000, 11:01:44.177, 1561474904177
137, -34066.38, 0.00, 0.00, 0.00, 0.00, 0.00, 0.00, 0.00, 0.000, 0.000, 0.000, 11:01:44.177, 1561474904177
138, -34577.61, 0.00, 0.00, 0.00, 0.00, 0.00, 0.00, 0.00, 0.000, 0.000, 0.000, 11:01:44.177, 1561474904177
139, -33481.14, 0.00, 0.00, 0.00, 0.00, 0.00, 0.00, 0.00, 0.058, -0.028, 1.040, 11:01:44.177, 1561474904177
140, -32834.36, 0.00, 0.00, 0.00, 0.00, 0.00, 0.00, 0.00, 0.000, 0.000, 0.000, 11:01:44.177, 1561474904177
141, -33842.29, 0.00, 0.00, 0.00, 0.00, 0.00, 0.00, 0.00, 0.000, 0.000, 0.000, 11:01:44.177, 1561474904177
142, -34604.23, 0.00, 0.00, 0.00, 0.00, 0.00, 0.00, 0.00, 0.000, 0.000, 0.000, 11:01:44.177, 1561474904177
143, -33652.99, 0.00, 0.00, 0.00, 0.00, 0.00, 0.00, 0.00, 0.000, 0.000, 0.000, 11:01:44.177, 1561474904177
144, -32783.64, 0.00, 0.00, 0.00, 0.00, 0.00, 0.00, 0.00, 0.000, 0.000, 0.000, 11:01:44.177, 1561474904177
145, -33610.12, 0.00, 0.00, 0.00, 0.00, 0.00, 0.00, 0.00, 0.000, 0.000, 0.000, 11:01:44.177, 1561474904177
146, -34583.15, 0.00, 0.00, 0.00, 0.00, 0.00, 0.00, 0.00, 0.000, 0.000, 0.000, 11:01:44.177, 1561474904177
147, -33893.89, 0.00, 0.00, 0.00, 0.00, 0.00, 0.00, 0.00, 0.000, 0.000, 0.000, 11:01:44.178, 1561474904178
148, -32867.75, 0.00, 0.00, 0.00, 0.00, 0.00, 0.00, 0.00, 0.000, 0.000, 0.000, 11:01:44.178, 1561474904178
149, -33416.66, 0.00, 0.00, 0.00, 0.00, 0.00, 0.00, 0.00, 0.000, 0.000, 0.000, 11:01:44.178, 1561474904178
150, -34523.88, 0.00, 0.00, 0.00, 0.00, 0.00, 0.00, 0.00, 0.062, -0.026, 1.032, 11:01:44.178, 1561474904178
151, -34093.88, 0.00, 0.00, 0.00, 0.00, 0.00, 0.00, 0.00, 0.000, 0.000, 0.000, 11:01:44.178, 1561474904178
152, -32929.21, 0.00, 0.00, 0.00, 0.00, 0.00, 0.00, 0.00, 0.000, 0.000, 0.000, 11:01:44.178, 1561474904178
153, -33218.74, 0.00, 0.00, 0.00, 0.00, 0.00, 0.00, 0.00, 0.000, 0.000, 0.000, 11:01:44.179, 1561474904179
154, -34421.15, 0.00, 0.00, 0.00, 0.00, 0.00, 0.00, 0.00, 0.000, 0.000, 0.000, 11:01:44.179, 1561474904179
155, -34298.06, 0.00, 0.00, 0.00, 0.00, 0.00, 0.00, 0.00, 0.000, 0.000, 0.000, 11:01:44.179, 1561474904179
156, -33068.00, 0.00, 0.00, 0.00, 0.00, 0.00, 0.00, 0.00, 0.000, 0.000, 0.000, 11:01:44.179, 1561474904179
157, -33030.11, 0.00, 0.00, 0.00, 0.00, 0.00, 0.00, 0.00, 0.000, 0.000, 0.000, 11:01:44.179, 1561474904179
158, -34271.13, 0.00, 0.00, 0.00, 0.00, 0.00, 0.00, 0.00, 0.000, 0.000, 0.000, 11:01:44.179, 1561474904179
159, -34477.32, 0.00, 0.00, 0.00, 0.00, 0.00, 0.00, 0.00, 0.000, 0.000, 0.000, 11:01:44.179, 1561474904179
160, -33277.07, 0.00, 0.00, 0.00, 0.00, 0.00, 0.00, 0.00, 0.066, -0.030, 1.028, 11:01:44.179, 1561474904179
161, -32924.97, 0.00, 0.00, 0.00, 0.00, 0.00, 0.00, 0.00, 0.000, 0.000, 0.000, 11:01:44.179, 1561474904179
162, -34074.47, 0.00, 0.00, 0.00, 0.00, 0.00, 0.00, 0.00, 0.000, 0.000, 0.000, 11:01:44.179, 1561474904179
163, -34573.25, 0.00, 0.00, 0.00, 0.00, 0.00, 0.00, 0.00, 0.000, 0.000, 0.000, 11:01:44.179, 1561474904179
164, -33460.76, 0.00, 0.00, 0.00, 0.00, 0.00, 0.00, 0.00, 0.000, 0.000, 0.000, 11:01:44.179, 1561474904179
165, -32830.46, 0.00, 0.00, 0.00, 0.00, 0.00, 0.00, 0.00, 0.000, 0.000, 0.000, 11:01:44.179, 1561474904179
166, -33861.75, 0.00, 0.00, 0.00, 0.00, 0.00, 0.00, 0.00, 0.000, 0.000, 0.000, 11:01:44.179, 1561474904179
167, -34619.32, 0.00, 0.00, 0.00, 0.00, 0.00, 0.00, 0.00, 0.000, 0.000, 0.000, 11:01:44.179, 1561474904179
168, -33695.48, 0.00, 0.00, 0.00, 0.00, 0.00, 0.00, 0.00, 0.000, 0.000, 0.000, 11:01:44.179, 1561474904179
169, -32823.38, 0.00, 0.00, 0.00, 0.00, 0.00, 0.00, 0.00, 0.000, 0.000, 0.000, 11:01:44.179, 1561474904179
170, -33646.57, 0.00, 0.00, 0.00, 0.00, 0.00, 0.00, 0.00, 0.068, -0.034, 1.032, 11:01:44.179, 1561474904179
171, -34601.86, 0.00, 0.00, 0.00, 0.00, 0.00, 0.00, 0.00, 0.000, 0.000, 0.000, 11:01:44.179, 1561474904179
172, -33892.71, 0.00, 0.00, 0.00, 0.00, 0.00, 0.00, 0.00, 0.000, 0.000, 0.000, 11:01:44.180, 1561474904180
173, -32843.36, 0.00, 0.00, 0.00, 0.00, 0.00, 0.00, 0.00, 0.000, 0.000, 0.000, 11:01:44.180, 1561474904180
174, -33435.04, 0.00, 0.00, 0.00, 0.00, 0.00, 0.00, 0.00, 0.000, 0.000, 0.000, 11:01:44.180, 1561474904180
175, -34563.89, 0.00, 0.00, 0.00, 0.00, 0.00, 0.00, 0.00, 0.000, 0.000, 0.000, 11:01:44.180, 1561474904180
176, -34135.94, 0.00, 0.00, 0.00, 0.00, 0.00, 0.00, 0.00, 0.000, 0.000, 0.000, 11:01:44.180, 1561474904180
177, -32941.08, 0.00, 0.00, 0.00, 0.00, 0.00, 0.00, 0.00, 0.000, 0.000, 0.000, 11:01:44.180, 1561474904180
178, -33208.68, 0.00, 0.00, 0.00, 0.00, 0.00, 0.00, 0.00, 0.000, 0.000, 0.000, 11:01:44.180, 1561474904180
179, -34442.72, 0.00, 0.00, 0.00, 0.00, 0.00, 0.00, 0.00, 0.000, 0.000, 0.000, 11:01:44.180, 1561474904180
180, -34348.37, 0.00, 0.00, 0.00, 0.00, 0.00, 0.00, 0.00, 0.066, -0.032, 1.038, 11:01:44.180, 1561474904180
181, -33112.61, 0.00, 0.00, 0.00, 0.00, 0.00, 0.00, 0.00, 0.000, 0.000, 0.000, 11:01:44.180, 1561474904180
182, -33076.16, 0.00, 0.00, 0.00, 0.00, 0.00, 0.00, 0.00, 0.000, 0.000, 0.000, 11:01:44.180, 1561474904180
183, -34294.84, 0.00, 0.00, 0.00, 0.00, 0.00, 0.00, 0.00, 0.000, 0.000, 0.000, 11:01:44.180, 1561474904180
184, -34466.14, 0.00, 0.00, 0.00, 0.00, 0.00, 0.00, 0.00, 0.000, 0.000, 0.000, 11:01:44.180, 1561474904180
185, -33270.39, 0.00, 0.00, 0.00, 0.00, 0.00, 0.00, 0.00, 0.000, 0.000, 0.000, 11:01:44.180, 1561474904180
186, -32899.58, 0.00, 0.00, 0.00, 0.00, 0.00, 0.00, 0.00, 0.000, 0.000, 0.000, 11:01:44.180, 1561474904180
187, -34072.08, 0.00, 0.00, 0.00, 0.00, 0.00, 0.00, 0.00, 0.000, 0.000, 0.000, 11:01:44.180, 1561474904180
188, -34591.54, 0.00, 0.00, 0.00, 0.00, 0.00, 0.00, 0.00, 0.000, 0.000, 0.000, 11:01:44.180, 1561474904180
189, -33494.65, 0.00, 0.00, 0.00, 0.00, 0.00, 0.00, 0.00, 0.000, 0.000, 0.000, 11:01:44.180, 1561474904180
190, -32843.23, 0.00, 0.00, 0.00, 0.00, 0.00, 0.00, 0.00, 0.060, -0.028, 1.038, 11:01:44.180, 1561474904180
191, -33866.56, 0.00, 0.00, 0.00, 0.00, 0.00, 0.00, 0.00, 0.000, 0.000, 0.000, 11:01:44.180, 1561474904180
192, -34616.01, 0.00, 0.00, 0.00, 0.00, 0.00, 0.00, 0.00, 0.000, 0.000, 0.000, 11:01:44.181, 1561474904181
193, -33688.57, 0.00, 0.00, 0.00, 0.00, 0.00, 0.00, 0.00, 0.000, 0.000, 0.000, 11:01:44.181, 1561474904181
194, -32833.13, 0.00, 0.00, 0.00, 0.00, 0.00, 0.00, 0.00, 0.000, 0.000, 0.000, 11:01:44.181, 1561474904181
195, -33623.26, 0.00, 0.00, 0.00, 0.00, 0.00, 0.00, 0.00, 0.000, 0.000, 0.000, 11:01:44.181, 1561474904181
196, -34588.07, 0.00, 0.00, 0.00, 0.00, 0.00, 0.00, 0.00, 0.000, 0.000, 0.000, 11:01:44.181, 1561474904181
197, -33892.20, 0.00, 0.00, 0.00, 0.00, 0.00, 0.00, 0.00, 0.000, 0.000, 0.000, 11:01:44.181, 1561474904181
198, -32877.76, 0.00, 0.00, 0.00, 0.00, 0.00, 0.00, 0.00, 0.000, 0.000, 0.000, 11:01:44.181, 1561474904181
199, -33458.01, 0.00, 0.00, 0.00, 0.00, 0.00, 0.00, 0.00, 0.000, 0.000, 0.000, 11:01:44.181, 1561474904181
200, -34600.12, 0.00, 0.00, 0.00, 0.00, 0.00, 0.00, 0.00, 0.070, -0.032, 1.040, 11:01:44.181, 1561474904181
201, -34184.33, 0.00, 0.00, 0.00, 0.00, 0.00, 0.00, 0.00, 0.000, 0.000, 0.000, 11:01:44.181, 1561474904181
202, -33006.53, 0.00, 0.00, 0.00, 0.00, 0.00, 0.00, 0.00, 0.000, 0.000, 0.000, 11:01:44.181, 1561474904181
203, -33251.75, 0.00, 0.00, 0.00, 0.00, 0.00, 0.00, 0.00, 0.000, 0.000, 0.000, 11:01:44.181, 1561474904181
204, -34414.13, 0.00, 0.00, 0.00, 0.00, 0.00, 0.00, 0.00, 0.000, 0.000, 0.000, 11:01:44.181, 1561474904181
205, -34286.03, 0.00, 0.00, 0.00, 0.00, 0.00, 0.00, 0.00, 0.000, 0.000, 0.000, 11:01:44.181, 1561474904181
206, -33104.72, 0.00, 0.00, 0.00, 0.00, 0.00, 0.00, 0.00, 0.000, 0.000, 0.000, 11:01:44.181, 1561474904181
207, -33074.50, 0.00, 0.00, 0.00, 0.00, 0.00, 0.00, 0.00, 0.000, 0.000, 0.000, 11:01:44.181, 1561474904181
208, -34291.02, 0.00, 0.00, 0.00, 0.00, 0.00, 0.00, 0.00, 0.000, 0.000, 0.000, 11:01:44.181, 1561474904181
209, -34472.74, 0.00, 0.00, 0.00, 0.00, 0.00, 0.00, 0.00, 0.000, 0.000, 0.000, 11:01:44.181, 1561474904181
210, -33274.30, 0.00, 0.00, 0.00, 0.00, 0.00, 0.00, 0.00, 0.000, 0.000, 0.000, 11:01:44.181, 1561474904181
211, -32931.05, 0.00, 0.00, 0.00, 0.00, 0.00, 0.00, 0.00, 0.066, -0.032, 1.040, 11:01:44.181, 1561474904181
212, -34098.75, 0.00, 0.00, 0.00, 0.00, 0.00, 0.00, 0.00, 0.000, 0.000, 0.000, 11:01:44.182, 1561474904182
213, -34601.93, 0.00, 0.00, 0.00, 0.00, 0.00, 0.00, 0.00, 0.000, 0.000, 0.000, 11:01:44.182, 1561474904182
214, -33500.84, 0.00, 0.00, 0.00, 0.00, 0.00, 0.00, 0.00, 0.000, 0.000, 0.000, 11:01:44.182, 1561474904182
215, -32850.38, 0.00, 0.00, 0.00, 0.00, 0.00, 0.00, 0.00, 0.000, 0.000, 0.000, 11:01:44.182, 1561474904182
216, -33868.68, 0.00, 0.00, 0.00, 0.00, 0.00, 0.00, 0.00, 0.000, 0.000, 0.000, 11:01:44.182, 1561474904182
217, -34632.11, 0.00, 0.00, 0.00, 0.00, 0.00, 0.00, 0.00, 0.000, 0.000, 0.000, 11:01:44.182, 1561474904182
218, -33710.30, 0.00, 0.00, 0.00, 0.00, 0.00, 0.00, 0.00, 0.000, 0.000, 0.000, 11:01:44.182, 1561474904182
219, -32848.14, 0.00, 0.00, 0.00, 0.00, 0.00, 0.00, 0.00, 0.000, 0.000, 0.000, 11:01:44.182, 1561474904182
220, -33672.34, 0.00, 0.00, 0.00, 0.00, 0.00, 0.00, 0.00, 0.000, 0.000, 0.000, 11:01:44.182, 1561474904182
221, -34624.06, 0.00, 0.00, 0.00, 0.00, 0.00, 0.00, 0.00, 0.068, -0.034, 1.040, 11:01:44.182, 1561474904182
222, -33919.71, 0.00, 0.00, 0.00, 0.00, 0.00, 0.00, 0.00, 0.000, 0.000, 0.000, 11:01:44.182, 1561474904182
223, -32872.33, 0.00, 0.00, 0.00, 0.00, 0.00, 0.00, 0.00, 0.000, 0.000, 0.000, 11:01:44.182, 1561474904182
224, -33440.02, 0.00, 0.00, 0.00, 0.00, 0.00, 0.00, 0.00, 0.000, 0.000, 0.000, 11:01:44.182, 1561474904182
225, -34586.80, 0.00, 0.00, 0.00, 0.00, 0.00, 0.00, 0.00, 0.000, 0.000, 0.000, 11:01:44.182, 1561474904182
226, -34148.84, 0.00, 0.00, 0.00, 0.00, 0.00, 0.00, 0.00, 0.000, 0.000, 0.000, 11:01:44.182, 1561474904182
227, -32972.89, 0.00, 0.00, 0.00, 0.00, 0.00, 0.00, 0.00, 0.000, 0.000, 0.000, 11:01:44.182, 1561474904182
228, -33253.40, 0.00, 0.00, 0.00, 0.00, 0.00, 0.00, 0.00, 0.000, 0.000, 0.000, 11:01:44.182, 1561474904182
229, -34447.99, 0.00, 0.00, 0.00, 0.00, 0.00, 0.00, 0.00, 0.000, 0.000, 0.000, 11:01:44.182, 1561474904182
230, -34322.33, 0.00, 0.00, 0.00, 0.00, 0.00, 0.00, 0.00, 0.000, 0.000, 0.000, 11:01:44.182, 1561474904182
231, -33114.60, 0.00, 0.00, 0.00, 0.00, 0.00, 0.00, 0.00, 0.064, -0.030, 1.038, 11:01:44.182, 1561474904182
232, -33082.68, 0.00, 0.00, 0.00, 0.00, 0.00, 0.00, 0.00, 0.000, 0.000, 0.000, 11:01:44.183, 1561474904183
233, -34284.07, 0.00, 0.00, 0.00, 0.00, 0.00, 0.00, 0.00, 0.000, 0.000, 0.000, 11:01:44.183, 1561474904183
234, -34484.40, 0.00, 0.00, 0.00, 0.00, 0.00, 0.00, 0.00, 0.000, 0.000, 0.000, 11:01:44.183, 1561474904183
235, -33291.69, 0.00, 0.00, 0.00, 0.00, 0.00, 0.00, 0.00, 0.000, 0.000, 0.000, 11:01:44.183, 1561474904183
236, -32927.40, 0.00, 0.00, 0.00, 0.00, 0.00, 0.00, 0.00, 0.000, 0.000, 0.000, 11:01:44.183, 1561474904183
237, -34084.22, 0.00, 0.00, 0.00, 0.00, 0.00, 0.00, 0.00, 0.000, 0.000, 0.000, 11:01:44.183, 1561474904183
238, -34589.61, 0.00, 0.00, 0.00, 0.00, 0.00, 0.00, 0.00, 0.000, 0.000, 0.000, 11:01:44.183, 1561474904183
239, -33502.16, 0.00, 0.00, 0.00, 0.00, 0.00, 0.00, 0.00, 0.000, 0.000, 0.000, 11:01:44.183, 1561474904183
240, -32875.88, 0.00, 0.00, 0.00, 0.00, 0.00, 0.00, 0.00, 0.000, 0.000, 0.000, 11:01:44.571, 1561474904571
241, -33894.41, 0.00, 0.00, 0.00, 0.00, 0.00, 0.00, 0.00, 0.058, -0.026, 1.030, 11:01:44.571, 1561474904571
242, -34632.91, 0.00, 0.00, 0.00, 0.00, 0.00, 0.00, 0.00, 0.000, 0.000, 0.000, 11:01:44.571, 1561474904571
243, -33704.75, 0.00, 0.00, 0.00, 0.00, 0.00, 0.00, 0.00, 0.000, 0.000, 0.000, 11:01:44.572, 1561474904572
244, -32832.45, 0.00, 0.00, 0.00, 0.00, 0.00, 0.00, 0.00, 0.000, 0.000, 0.000, 11:01:44.572, 1561474904572
245, -33663.56, 0.00, 0.00, 0.00, 0.00, 0.00, 0.00, 0.00, 0.000, 0.000, 0.000, 11:01:44.572, 1561474904572
246, -34635.01, 0.00, 0.00, 0.00, 0.00, 0.00, 0.00, 0.00, 0.000, 0.000, 0.000, 11:01:44.572, 1561474904572
247, -33925.99, 0.00, 0.00, 0.00, 0.00, 0.00, 0.00, 0.00, 0.000, 0.000, 0.000, 11:01:44.573, 1561474904573
248, -32880.11, 0.00, 0.00, 0.00, 0.00, 0.00, 0.00, 0.00, 0.000, 0.000, 0.000, 11:01:44.573, 1561474904573
249, -33443.17, 0.00, 0.00, 0.00, 0.00, 0.00, 0.00, 0.00, 0.000, 0.000, 0.000, 11:01:44.573, 1561474904573
250, -34555.28, 0.00, 0.00, 0.00, 0.00, 0.00, 0.00, 0.00, 0.000, 0.000, 0.000, 11:01:44.573, 1561474904573
251, -34138.76, 0.00, 0.00, 0.00, 0.00, 0.00, 0.00, 0.00, 0.062, -0.028, 1.034, 11:01:44.573, 1561474904573
252, -32982.03, 0.00, 0.00, 0.00, 0.00, 0.00, 0.00, 0.00, 0.000, 0.000, 0.000, 11:01:44.573, 1561474904573
253, -33262.32, 0.00, 0.00, 0.00, 0.00, 0.00, 0.00, 0.00, 0.000, 0.000, 0.000, 11:01:44.573, 1561474904573
254, -34462.39, 0.00, 0.00, 0.00, 0.00, 0.00, 0.00, 0.00, 0.000, 0.000, 0.000, 11:01:44.573, 1561474904573
255, -34322.36, 0.00, 0.00, 0.00, 0.00, 0.00, 0.00, 0.00, 0.000, 0.000, 0.000, 11:01:44.573, 1561474904573
0, -33135.75, 0.00, 0.00, 0.00, 0.00, 0.00, 0.00, 0.00, 0.000, 0.000, 0.000, 11:01:44.574, 1561474904574
1, -33108.95, 0.00, 0.00, 0.00, 0.00, 0.00, 0.00, 0.00, 0.000, 0.000, 0.000, 11:01:44.574, 1561474904574
2, -34313.77, 0.00, 0.00, 0.00, 0.00, 0.00, 0.00, 0.00, 0.000, 0.000, 0.000, 11:01:44.574, 1561474904574
3, -34493.68, 0.00, 0.00, 0.00, 0.00, 0.00, 0.00, 0.00, 0.000, 0.000, 0.000, 11:01:44.574, 1561474904574
4, -33308.55, 0.00, 0.00, 0.00, 0.00, 0.00, 0.00, 0.00, 0.000, 0.000, 0.000, 11:01:44.574, 1561474904574
5, -32967.75, 0.00, 0.00, 0.00, 0.00, 0.00, 0.00, 0.00, 0.068, -0.026, 1.034, 11:01:44.574, 1561474904574
6, -34117.79, 0.00, 0.00, 0.00, 0.00, 0.00, 0.00, 0.00, 0.000, 0.000, 0.000, 11:01:44.574, 1561474904574
7, -34607.25, 0.00, 0.00, 0.00, 0.00, 0.00, 0.00, 0.00, 0.000, 0.000, 0.000, 11:01:44.574, 1561474904574
8, -33492.79, 0.00, 0.00, 0.00, 0.00, 0.00, 0.00, 0.00, 0.000, 0.000, 0.000, 11:01:44.575, 1561474904575
9, -32854.09, 0.00, 0.00, 0.00, 0.00, 0.00, 0.00, 0.00, 0.000, 0.000, 0.000, 11:01:44.575, 1561474904575
10, -33892.08, 0.00, 0.00, 0.00, 0.00, 0.00, 0.00, 0.00, 0.000, 0.000, 0.000, 11:01:44.575, 1561474904575
11, -34657.72, 0.00, 0.00, 0.00, 0.00, 0.00, 0.00, 0.00, 0.000, 0.000, 0.000, 11:01:44.575, 1561474904575
12, -33753.39, 0.00, 0.00, 0.00, 0.00, 0.00, 0.00, 0.00, 0.000, 0.000, 0.000, 11:01:44.575, 1561474904575
13, -32892.49, 0.00, 0.00, 0.00, 0.00, 0.00, 0.00, 0.00, 0.000, 0.000, 0.000, 11:01:44.575, 1561474904575
14, -33688.68, 0.00, 0.00, 0.00, 0.00, 0.00, 0.00, 0.00, 0.000, 0.000, 0.000, 11:01:44.575, 1561474904575
15, -34630.59, 0.00, 0.00, 0.00, 0.00, 0.00, 0.00, 0.00, 0.000, 0.000, 0.000, 11:01:44.575, 1561474904575
16, -33941.48, 0.00, 0.00, 0.00, 0.00, 0.00, 0.00, 0.00, 0.068, -0.024, 1.036, 11:01:44.575, 1561474904575
17, -32894.93, 0.00, 0.00, 0.00, 0.00, 0.00, 0.00, 0.00, 0.000, 0.000, 0.000, 11:01:44.575, 1561474904575
18, -33450.57, 0.00, 0.00, 0.00, 0.00, 0.00, 0.00, 0.00, 0.000, 0.000, 0.000, 11:01:44.575, 1561474904575
19, -34573.66, 0.00, 0.00, 0.00, 0.00, 0.00, 0.00, 0.00, 0.000, 0.000, 0.000, 11:01:44.576, 1561474904576
20, -34186.70, 0.00, 0.00, 0.00, 0.00, 0.00, 0.00, 0.00, 0.000, 0.000, 0.000, 11:01:44.576, 1561474904576
21, -33026.55, 0.00, 0.00, 0.00, 0.00, 0.00, 0.00, 0.00, 0.000, 0.000, 0.000, 11:01:44.576, 1561474904576
22, -33282.28, 0.00, 0.00, 0.00, 0.00, 0.00, 0.00, 0.00, 0.000, 0.000, 0.000, 11:01:44.576, 1561474904576
23, -34452.04, 0.00, 0.00, 0.00, 0.00, 0.00, 0.00, 0.00, 0.000, 0.000, 0.000, 11:01:44.576, 1561474904576
24, -34332.90, 0.00, 0.00, 0.00, 0.00, 0.00, 0.00, 0.00, 0.000, 0.000, 0.000, 11:01:44.576, 1561474904576
25, -33121.68, 0.00, 0.00, 0.00, 0.00, 0.00, 0.00, 0.00, 0.000, 0.000, 0.000, 11:01:44.576, 1561474904576
26, -33092.56, 0.00, 0.00, 0.00, 0.00, 0.00, 0.00, 0.00, 0.066, -0.026, 1.032, 11:01:44.576, 1561474904576
27, -34299.46, 0.00, 0.00, 0.00, 0.00, 0.00, 0.00, 0.00, 0.000, 0.000, 0.000, 11:01:44.576, 1561474904576
28, -34495.38, 0.00, 0.00, 0.00, 0.00, 0.00, 0.00, 0.00, 0.000, 0.000, 0.000, 11:01:44.577, 1561474904577
29, -33305.80, 0.00, 0.00, 0.00, 0.00, 0.00, 0.00, 0.00, 0.000, 0.000, 0.000, 11:01:44.577, 1561474904577
30, -32956.73, 0.00, 0.00, 0.00, 0.00, 0.00, 0.00, 0.00, 0.000, 0.000, 0.000, 11:01:44.577, 1561474904577
31, -34116.27, 0.00, 0.00, 0.00, 0.00, 0.00, 0.00, 0.00, 0.000, 0.000, 0.000, 11:01:44.577, 1561474904577
32, -34605.30, 0.00, 0.00, 0.00, 0.00, 0.00, 0.00, 0.00, 0.000, 0.000, 0.000, 11:01:44.577, 1561474904577
33, -33507.75, 0.00, 0.00, 0.00, 0.00, 0.00, 0.00, 0.00, 0.000, 0.000, 0.000, 11:01:44.577, 1561474904577
34, -32869.13, 0.00, 0.00, 0.00, 0.00, 0.00, 0.00, 0.00, 0.000, 0.000, 0.000, 11:01:44.577, 1561474904577
35, -33895.05, 0.00, 0.00, 0.00, 0.00, 0.00, 0.00, 0.00, 0.000, 0.000, 0.000, 11:01:44.578, 1561474904578
36, -34650.84, 0.00, 0.00, 0.00, 0.00, 0.00, 0.00, 0.00, 0.062, -0.028, 1.032, 11:01:44.578, 1561474904578
37, -33718.61, 0.00, 0.00, 0.00, 0.00, 0.00, 0.00, 0.00, 0.000, 0.000, 0.000, 11:01:44.578, 1561474904578
38, -32850.83, 0.00, 0.00, 0.00, 0.00, 0.00, 0.00, 0.00, 0.000, 0.000, 0.000, 11:01:44.578, 1561474904578
39, -33673.98, 0.00, 0.00, 0.00, 0.00, 0.00, 0.00, 0.00, 0.000, 0.000, 0.000, 11:01:44.578, 1561474904578
40, -34645.25, 0.00, 0.00, 0.00, 0.00, 0.00, 0.00, 0.00, 0.000, 0.000, 0.000, 11:01:44.578, 1561474904578
41, -33948.54, 0.00, 0.00, 0.00, 0.00, 0.00, 0.00, 0.00, 0.000, 0.000, 0.000, 11:01:44.578, 1561474904578
42, -32898.70, 0.00, 0.00, 0.00, 0.00, 0.00, 0.00, 0.00, 0.000, 0.000, 0.000, 11:01:44.578, 1561474904578
43, -33475.00, 0.00, 0.00, 0.00, 0.00, 0.00, 0.00, 0.00, 0.000, 0.000, 0.000, 11:01:44.578, 1561474904578
44, -34594.89, 0.00, 0.00, 0.00, 0.00, 0.00, 0.00, 0.00, 0.000, 0.000, 0.000, 11:01:44.579, 1561474904579
45, -34178.97, 0.00, 0.00, 0.00, 0.00, 0.00, 0.00, 0.00, 0.000, 0.000, 0.000, 11:01:44.579, 1561474904579
46, -33003.33, 0.00, 0.00, 0.00, 0.00, 0.00, 0.00, 0.00, 0.062, -0.030, 1.026, 11:01:44.579, 1561474904579
47, -33253.25, 0.00, 0.00, 0.00, 0.00, 0.00, 0.00, 0.00, 0.000, 0.000, 0.000, 11:01:44.579, 1561474904579
48, -34469.92, 0.00, 0.00, 0.00, 0.00, 0.00, 0.00, 0.00, 0.000, 0.000, 0.000, 11:01:44.579, 1561474904579
49, -34345.96, 0.00, 0.00, 0.00, 0.00, 0.00, 0.00, 0.00, 0.000, 0.000, 0.000, 11:01:44.579, 1561474904579
50, -33136.17, 0.00, 0.00, 0.00, 0.00, 0.00, 0.00, 0.00, 0.000, 0.000, 0.000, 11:01:44.579, 1561474904579
51, -33108.95, 0.00, 0.00, 0.00, 0.00, 0.00, 0.00, 0.00, 0.000, 0.000, 0.000, 11:01:44.579, 1561474904579
52, -34304.18, 0.00, 0.00, 0.00, 0.00, 0.00, 0.00, 0.00, 0.000, 0.000, 0.000, 11:01:44.579, 1561474904579
53, -34494.24, 0.00, 0.00, 0.00, 0.00, 0.00, 0.00, 0.00, 0.000, 0.000, 0.000, 11:01:44.579, 1561474904579
54, -33318.22, 0.00, 0.00, 0.00, 0.00, 0.00, 0.00, 0.00, 0.000, 0.000, 0.000, 11:01:44.579, 1561474904579
55, -32957.45, 0.00, 0.00, 0.00, 0.00, 0.00, 0.00, 0.00, 0.000, 0.000, 0.000, 11:01:44.580, 1561474904580
56, -34114.48, 0.00, 0.00, 0.00, 0.00, 0.00, 0.00, 0.00, 0.060, -0.034, 1.030, 11:01:44.580, 1561474904580
57, -34585.66, 0.00, 0.00, 0.00, 0.00, 0.00, 0.00, 0.00, 0.000, 0.000, 0.000, 11:01:44.580, 1561474904580
58, -33479.36, 0.00, 0.00, 0.00, 0.00, 0.00, 0.00, 0.00, 0.000, 0.000, 0.000, 11:01:44.580, 1561474904580
59, -32866.52, 0.00, 0.00, 0.00, 0.00, 0.00, 0.00, 0.00, 0.000, 0.000, 0.000, 11:01:44.580, 1561474904580
60, -33912.56, 0.00, 0.00, 0.00, 0.00, 0.00, 0.00, 0.00, 0.000, 0.000, 0.000, 11:01:44.580, 1561474904580
61, -34684.77, 0.00, 0.00, 0.00, 0.00, 0.00, 0.00, 0.00, 0.000, 0.000, 0.000, 11:01:44.580, 1561474904580
62, -33745.12, 0.00, 0.00, 0.00, 0.00, 0.00, 0.00, 0.00, 0.000, 0.000, 0.000, 11:01:44.580, 1561474904580
63, -32874.14, 0.00, 0.00, 0.00, 0.00, 0.00, 0.00, 0.00, 0.000, 0.000, 0.000, 11:01:44.580, 1561474904580
64, -33700.84, 0.00, 0.00, 0.00, 0.00, 0.00, 0.00, 0.00, 0.000, 0.000, 0.000, 11:01:44.580, 1561474904580
65, -34654.90, 0.00, 0.00, 0.00, 0.00, 0.00, 0.00, 0.00, 0.000, 0.000, 0.000, 11:01:44.581, 1561474904581
66, -33947.92, 0.00, 0.00, 0.00, 0.00, 0.00, 0.00, 0.00, 0.000, 0.000, 0.000, 11:01:44.581, 1561474904581
67, -32907.87, 0.00, 0.00, 0.00, 0.00, 0.00, 0.00, 0.00, 0.060, -0.030, 1.026, 11:01:44.581, 1561474904581
68, -33478.09, 0.00, 0.00, 0.00, 0.00, 0.00, 0.00, 0.00, 0.000, 0.000, 0.000, 11:01:44.581, 1561474904581
69, -34580.54, 0.00, 0.00, 0.00, 0.00, 0.00, 0.00, 0.00, 0.000, 0.000, 0.000, 11:01:44.582, 1561474904582
70, -34152.55, 0.00, 0.00, 0.00, 0.00, 0.00, 0.00, 0.00, 0.000, 0.000, 0.000, 11:01:44.582, 1561474904582
71, -33009.17, 0.00, 0.00, 0.00, 0.00, 0.00, 0.00, 0.00, 0.000, 0.000, 0.000, 11:01:44.582, 1561474904582
72, -33285.32, 0.00, 0.00, 0.00, 0.00, 0.00, 0.00, 0.00, 0.000, 0.000, 0.000, 11:01:44.582, 1561474904582
73, -34468.60, 0.00, 0.00, 0.00, 0.00, 0.00, 0.00, 0.00, 0.000, 0.000, 0.000, 11:01:44.582, 1561474904582
74, -34326.27, 0.00, 0.00, 0.00, 0.00, 0.00, 0.00, 0.00, 0.000, 0.000, 0.000, 11:01:44.583, 1561474904583
75, -33117.26, 0.00, 0.00, 0.00, 0.00, 0.00, 0.00, 0.00, 0.000, 0.000, 0.000, 11:01:44.583, 1561474904583
76, -33109.95, 0.00, 0.00, 0.00, 0.00, 0.00, 0.00, 0.00, 0.000, 0.000, 0.000, 11:01:44.583, 1561474904583
77, -34337.02, 0.00, 0.00, 0.00, 0.00, 0.00, 0.00, 0.00, 0.064, -0.024, 1.028, 11:01:44.583, 1561474904583
78, -34508.48, 0.00, 0.00, 0.00, 0.00, 0.00, 0.00, 0.00, 0.000, 0.000, 0.000, 11:01:44.584, 1561474904584
79, -33317.38, 0.00, 0.00, 0.00, 0.00, 0.00, 0.00, 0.00, 0.000, 0.000, 0.000, 11:01:44.584, 1561474904584
80, -32998.15, 0.00, 0.00, 0.00, 0.00, 0.00, 0.00, 0.00, 0.000, 0.000, 0.000, 11:01:44.584, 1561474904584
81, -34146.82, 0.00, 0.00, 0.00, 0.00, 0.00, 0.00, 0.00, 0.000, 0.000, 0.000, 11:01:44.584, 1561474904584
82, -34604.66, 0.00, 0.00, 0.00, 0.00, 0.00, 0.00, 0.00, 0.000, 0.000, 0.000, 11:01:44.585, 1561474904585
83, -33496.66, 0.00, 0.00, 0.00, 0.00, 0.00, 0.00, 0.00, 0.000, 0.000, 0.000, 11:01:44.585, 1561474904585
84, -32878.03, 0.00, 0.00, 0.00, 0.00, 0.00, 0.00, 0.00, 0.000, 0.000, 0.000, 11:01:44.585, 1561474904585
85, -33889.67, 0.00, 0.00, 0.00, 0.00, 0.00, 0.00, 0.00, 0.000, 0.000, 0.000, 11:01:44.585, 1561474904585
86, -34645.76, 0.00, 0.00, 0.00, 0.00, 0.00, 0.00, 0.00, 0.000, 0.000, 0.000, 11:01:44.585, 1561474904585
87, -33717.83, 0.00, 0.00, 0.00, 0.00, 0.00, 0.00, 0.00, 0.060, -0.028, 1.026, 11:01:44.586, 1561474904586
88, -32871.82, 0.00, 0.00, 0.00, 0.00, 0.00, 0.00, 0.00, 0.000, 0.000, 0.000, 11:01:44.586, 1561474904586
89, -33701.96, 0.00, 0.00, 0.00, 0.00, 0.00, 0.00, 0.00, 0.000, 0.000, 0.000, 11:01:44.586, 1561474904586
90, -34628.57, 0.00, 0.00, 0.00, 0.00, 0.00, 0.00, 0.00, 0.000, 0.000, 0.000, 11:01:44.586, 1561474904586
91, -33888.86, 0.00, 0.00, 0.00, 0.00, 0.00, 0.00, 0.00, 0.000, 0.000, 0.000, 11:01:44.586, 1561474904586
92, -32842.16, 0.00, 0.00, 0.00, 0.00, 0.00, 0.00, 0.00, 0.000, 0.000, 0.000, 11:01:44.587, 1561474904587
93, -33455.24, 0.00, 0.00, 0.00, 0.00, 0.00, 0.00, 0.00, 0.000, 0.000, 0.000, 11:01:44.587, 1561474904587
94, -34603.88, 0.00, 0.00, 0.00, 0.00, 0.00, 0.00, 0.00, 0.000, 0.000, 0.000, 11:01:44.587, 1561474904587
95, -34183.62, 0.00, 0.00, 0.00, 0.00, 0.00, 0.00, 0.00, 0.000, 0.000, 0.000, 11:01:44.587, 1561474904587
96, -33035.36, 0.00, 0.00, 0.00, 0.00, 0.00, 0.00, 0.00, 0.000, 0.000, 0.000, 11:01:44.588, 1561474904588
97, -33318.56, 0.00, 0.00, 0.00, 0.00, 0.00, 0.00, 0.00, 0.056, -0.028, 1.026, 11:01:44.588, 1561474904588
98, -34511.76, 0.00, 0.00, 0.00, 0.00, 0.00, 0.00, 0.00, 0.000, 0.000, 0.000, 11:01:44.589, 1561474904589
99, -34366.72, 0.00, 0.00, 0.00, 0.00, 0.00, 0.00, 0.00, 0.000, 0.000, 0.000, 11:01:44.589, 1561474904589
100, -33163.19, 0.00, 0.00, 0.00, 0.00, 0.00, 0.00, 0.00, 0.000, 0.000, 0.000, 11:01:44.589, 1561474904589
101, -33129.33, 0.00, 0.00, 0.00, 0.00, 0.00, 0.00, 0.00, 0.000, 0.000, 0.000, 11:01:44.589, 1561474904589
102, -34331.96, 0.00, 0.00, 0.00, 0.00, 0.00, 0.00, 0.00, 0.000, 0.000, 0.000, 11:01:44.589, 1561474904589
103, -34496.14, 0.00, 0.00, 0.00, 0.00, 0.00, 0.00, 0.00, 0.000, 0.000, 0.000, 11:01:44.589, 1561474904589
104, -33311.86, 0.00, 0.00, 0.00, 0.00, 0.00, 0.00, 0.00, 0.000, 0.000, 0.000, 11:01:45.050, 1561474905050
105, -32970.86, 0.00, 0.00, 0.00, 0.00, 0.00, 0.00, 0.00, 0.000, 0.000, 0.000, 11:01:45.050, 1561474905050
106, -34129.70, 0.00, 0.00, 0.00, 0.00, 0.00, 0.00, 0.00, 0.000, 0.000, 0.000, 11:01:45.050, 1561474905050
107, -34614.74, 0.00, 0.00, 0.00, 0.00, 0.00, 0.00, 0.00, 0.056, -0.024, 1.030, 11:01:45.051, 1561474905051
108, -33507.32, 0.00, 0.00, 0.00, 0.00, 0.00, 0.00, 0.00, 0.000, 0.000, 0.000, 11:01:45.051, 1561474905051
109, -32887.80, 0.00, 0.00, 0.00, 0.00, 0.00, 0.00, 0.00, 0.000, 0.000, 0.000, 11:01:45.051, 1561474905051
110, -33930.33, 0.00, 0.00, 0.00, 0.00, 0.00, 0.00, 0.00, 0.000, 0.000, 0.000, 11:01:45.051, 1561474905051
111, -34662.61, 0.00, 0.00, 0.00, 0.00, 0.00, 0.00, 0.00, 0.000, 0.000, 0.000, 11:01:45.051, 1561474905051
112, -33706.27, 0.00, 0.00, 0.00, 0.00, 0.00, 0.00, 0.00, 0.000, 0.000, 0.000, 11:01:45.051, 1561474905051
113, -32856.26, 0.00, 0.00, 0.00, 0.00, 0.00, 0.00, 0.00, 0.000, 0.000, 0.000, 11:01:45.051, 1561474905051
114, -33699.93, 0.00, 0.00, 0.00, 0.00, 0.00, 0.00, 0.00, 0.000, 0.000, 0.000, 11:01:45.051, 1561474905051
115, -34662.66, 0.00, 0.00, 0.00, 0.00, 0.00, 0.00, 0.00, 0.000, 0.000, 0.000, 11:01:45.051, 1561474905051
116, -33929.30, 0.00, 0.00, 0.00, 0.00, 0.00, 0.00, 0.00, 0.000, 0.000, 0.000, 11:01:45.051, 1561474905051
117, -32887.93, 0.00, 0.00, 0.00, 0.00, 0.00, 0.00, 0.00, 0.054, -0.030, 1.030, 11:01:45.051, 1561474905051
118, -33465.84, 0.00, 0.00, 0.00, 0.00, 0.00, 0.00, 0.00, 0.000, 0.000, 0.000, 11:01:45.051, 1561474905051
119, -34585.90, 0.00, 0.00, 0.00, 0.00, 0.00, 0.00, 0.00, 0.000, 0.000, 0.000, 11:01:45.051, 1561474905051
120, -34157.06, 0.00, 0.00, 0.00, 0.00, 0.00, 0.00, 0.00, 0.000, 0.000, 0.000, 11:01:45.051, 1561474905051
121, -32994.10, 0.00, 0.00, 0.00, 0.00, 0.00, 0.00, 0.00, 0.000, 0.000, 0.000, 11:01:45.051, 1561474905051
122, -33292.88, 0.00, 0.00, 0.00, 0.00, 0.00, 0.00, 0.00, 0.000, 0.000, 0.000, 11:01:45.051, 1561474905051
123, -34493.30, 0.00, 0.00, 0.00, 0.00, 0.00, 0.00, 0.00, 0.000, 0.000, 0.000, 11:01:45.051, 1561474905051
124, -34357.00, 0.00, 0.00, 0.00, 0.00, 0.00, 0.00, 0.00, 0.000, 0.000, 0.000, 11:01:45.052, 1561474905052
125, -33127.83, 0.00, 0.00, 0.00, 0.00, 0.00, 0.00, 0.00, 0.000, 0.000, 0.000, 11:01:45.052, 1561474905052
126, -33103.47, 0.00, 0.00, 0.00, 0.00, 0.00, 0.00, 0.00, 0.000, 0.000, 0.000, 11:01:45.052, 1561474905052
127, -34325.95, 0.00, 0.00, 0.00, 0.00, 0.00, 0.00, 0.00, 0.000, 0.000, 0.000, 11:01:45.052, 1561474905052
128, -34487.89, 0.00, 0.00, 0.00, 0.00, 0.00, 0.00, 0.00, 0.054, -0.034, 1.028, 11:01:45.052, 1561474905052
129, -33280.29, 0.00, 0.00, 0.00, 0.00, 0.00, 0.00, 0.00, 0.000, 0.000, 0.000, 11:01:45.052, 1561474905052
130, -32928.61, 0.00, 0.00, 0.00, 0.00, 0.00, 0.00, 0.00, 0.000, 0.000, 0.000, 11:01:45.052, 1561474905052
131, -34098.30, 0.00, 0.00, 0.00, 0.00, 0.00, 0.00, 0.00, 0.000, 0.000, 0.000, 11:01:45.052, 1561474905052
132, -34606.55, 0.00, 0.00, 0.00, 0.00, 0.00, 0.00, 0.00, 0.000, 0.000, 0.000, 11:01:45.052, 1561474905052
133, -33534.30, 0.00, 0.00, 0.00, 0.00, 0.00, 0.00, 0.00, 0.000, 0.000, 0.000, 11:01:45.052, 1561474905052
134, -32920.79, 0.00, 0.00, 0.00, 0.00, 0.00, 0.00, 0.00, 0.000, 0.000, 0.000, 11:01:45.052, 1561474905052
135, -33947.36, 0.00, 0.00, 0.00, 0.00, 0.00, 0.00, 0.00, 0.000, 0.000, 0.000, 11:01:45.052, 1561474905052
136, -34669.81, 0.00, 0.00, 0.00, 0.00, 0.00, 0.00, 0.00, 0.000, 0.000, 0.000, 11:01:45.052, 1561474905052
137, -33715.35, 0.00, 0.00, 0.00, 0.00, 0.00, 0.00, 0.00, 0.000, 0.000, 0.000, 11:01:45.052, 1561474905052
138, -32867.37, 0.00, 0.00, 0.00, 0.00, 0.00, 0.00, 0.00, 0.056, -0.032, 1.036, 11:01:45.052, 1561474905052
139, -33704.17, 0.00, 0.00, 0.00, 0.00, 0.00, 0.00, 0.00, 0.000, 0.000, 0.000, 11:01:45.052, 1561474905052
140, -34660.78, 0.00, 0.00, 0.00, 0.00, 0.00, 0.00, 0.00, 0.000, 0.000, 0.000, 11:01:45.052, 1561474905052
141, -33946.24, 0.00, 0.00, 0.00, 0.00, 0.00, 0.00, 0.00, 0.000, 0.000, 0.000, 11:01:45.052, 1561474905052
142, -32911.09, 0.00, 0.00, 0.00, 0.00, 0.00, 0.00, 0.00, 0.000, 0.000, 0.000, 11:01:45.052, 1561474905052
143, -33475.04, 0.00, 0.00, 0.00, 0.00, 0.00, 0.00, 0.00, 0.000, 0.000, 0.000, 11:01:45.053, 1561474905053
144, -34573.05, 0.00, 0.00, 0.00, 0.00, 0.00, 0.00, 0.00, 0.000, 0.000, 0.000, 11:01:45.053, 1561474905053
145, -34146.80, 0.00, 0.00, 0.00, 0.00, 0.00, 0.00, 0.00, 0.000, 0.000, 0.000, 11:01:45.053, 1561474905053
146, -33001.61, 0.00, 0.00, 0.00, 0.00, 0.00, 0.00, 0.00, 0.000, 0.000, 0.000, 11:01:45.053, 1561474905053
147, -33282.68, 0.00, 0.00, 0.00, 0.00, 0.00, 0.00, 0.00, 0.000, 0.000, 0.000, 11:01:45.053, 1561474905053
148, -34477.50, 0.00, 0.00, 0.00, 0.00, 0.00, 0.00, 0.00, 0.062, -0.028, 1.034, 11:01:45.053, 1561474905053
149, -34362.16, 0.00, 0.00, 0.00, 0.00, 0.00, 0.00, 0.00, 0.000, 0.000, 0.000, 11:01:45.053, 1561474905053
150, -33158.23, 0.00, 0.00, 0.00, 0.00, 0.00, 0.00, 0.00, 0.000, 0.000, 0.000, 11:01:45.053, 1561474905053
151, -33136.66, 0.00, 0.00, 0.00, 0.00, 0.00, 0.00, 0.00, 0.000, 0.000, 0.000, 11:01:45.054, 1561474905054
152, -34333.86, 0.00, 0.00, 0.00, 0.00, 0.00, 0.00, 0.00, 0.000, 0.000, 0.000, 11:01:45.054, 1561474905054
153, -34491.31, 0.00, 0.00, 0.00, 0.00, 0.00, 0.00, 0.00, 0.000, 0.000, 0.000, 11:01:45.054, 1561474905054
154, -33310.31, 0.00, 0.00, 0.00, 0.00, 0.00, 0.00, 0.00, 0.000, 0.000, 0.000, 11:01:45.054, 1561474905054
155, -32988.69, 0.00, 0.00, 0.00, 0.00, 0.00, 0.00, 0.00, 0.000, 0.000, 0.000, 11:01:45.054, 1561474905054
156, -34171.10, 0.00, 0.00, 0.00, 0.00, 0.00, 0.00, 0.00, 0.000, 0.000, 0.000, 11:01:45.054, 1561474905054
157, -34631.72, 0.00, 0.00, 0.00, 0.00, 0.00, 0.00, 0.00, 0.000, 0.000, 0.000, 11:01:45.054, 1561474905054
158, -33514.85, 0.00, 0.00, 0.00, 0.00, 0.00, 0.00, 0.00, 0.066, -0.028, 1.040, 11:01:45.054, 1561474905054
159, -32903.09, 0.00, 0.00, 0.00, 0.00, 0.00, 0.00, 0.00, 0.000, 0.000, 0.000, 11:01:45.054, 1561474905054
160, -33948.23, 0.00, 0.00, 0.00, 0.00, 0.00, 0.00, 0.00, 0.000, 0.000, 0.000, 11:01:45.054, 1561474905054
161, -34694.67, 0.00, 0.00, 0.00, 0.00, 0.00, 0.00, 0.00, 0.000, 0.000, 0.000, 11:01:45.055, 1561474905055
162, -33761.21, 0.00, 0.00, 0.00, 0.00, 0.00, 0.00, 0.00, 0.000, 0.000, 0.000, 11:01:45.055, 1561474905055
163, -32914.11, 0.00, 0.00, 0.00, 0.00, 0.00, 0.00, 0.00, 0.000, 0.000, 0.000, 11:01:45.055, 1561474905055
164, -33733.96, 0.00, 0.00, 0.00, 0.00, 0.00, 0.00, 0.00, 0.000, 0.000, 0.000, 11:01:45.056, 1561474905056
165, -34675.36, 0.00, 0.00, 0.00, 0.00, 0.00, 0.00, 0.00, 0.000, 0.000, 0.000, 11:01:45.056, 1561474905056
166, -33974.89, 0.00, 0.00, 0.00, 0.00, 0.00, 0.00, 0.00, 0.000, 0.000, 0.000, 11:01:45.056, 1561474905056
167, -32912.81, 0.00, 0.00, 0.00, 0.00, 0.00, 0.00, 0.00, 0.000, 0.000, 0.000, 11:01:45.056, 1561474905056
168, -33504.75, 0.00, 0.00, 0.00, 0.00, 0.00, 0.00, 0.00, 0.066, -0.036, 1.034, 11:01:45.057, 1561474905057
169, -34622.54, 0.00, 0.00, 0.00, 0.00, 0.00, 0.00, 0.00, 0.000, 0.000, 0.000, 11:01:45.057, 1561474905057
170, -34165.04, 0.00, 0.00, 0.00, 0.00, 0.00, 0.00, 0.00, 0.000, 0.000, 0.000, 11:01:45.057, 1561474905057
171, -33007.02, 0.00, 0.00, 0.00, 0.00, 0.00, 0.00, 0.00, 0.000, 0.000, 0.000, 11:01:45.057, 1561474905057
172, -33327.59, 0.00, 0.00, 0.00, 0.00, 0.00, 0.00, 0.00, 0.000, 0.000, 0.000, 11:01:45.057, 1561474905057
173, -34515.77, 0.00, 0.00, 0.00, 0.00, 0.00, 0.00, 0.00, 0.000, 0.000, 0.000, 11:01:45.058, 1561474905058
174, -34362.12, 0.00, 0.00, 0.00, 0.00, 0.00, 0.00, 0.00, 0.000, 0.000, 0.000, 11:01:45.058, 1561474905058
175, -33141.76, 0.00, 0.00, 0.00, 0.00, 0.00, 0.00, 0.00, 0.000, 0.000, 0.000, 11:01:45.058, 1561474905058
176, -33117.39, 0.00, 0.00, 0.00, 0.00, 0.00, 0.00, 0.00, 0.000, 0.000, 0.000, 11:01:45.058, 1561474905058
177, -34340.08, 0.00, 0.00, 0.00, 0.00, 0.00, 0.00, 0.00, 0.000, 0.000, 0.000, 11:01:45.058, 1561474905058
178, -34520.66, 0.00, 0.00, 0.00, 0.00, 0.00, 0.00, 0.00, 0.000, 0.000, 0.000, 11:01:45.058, 1561474905058
179, -33332.44, 0.00, 0.00, 0.00, 0.00, 0.00, 0.00, 0.00, 0.066, -0.030, 1.032, 11:01:45.058, 1561474905058
180, -33002.17, 0.00, 0.00, 0.00, 0.00, 0.00, 0.00, 0.00, 0.000, 0.000, 0.000, 11:01:45.058, 1561474905058
181, -34147.90, 0.00, 0.00, 0.00, 0.00, 0.00, 0.00, 0.00, 0.000, 0.000, 0.000, 11:01:45.058, 1561474905058
182, -34623.95, 0.00, 0.00, 0.00, 0.00, 0.00, 0.00, 0.00, 0.000, 0.000, 0.000, 11:01:45.058, 1561474905058
183, -33533.09, 0.00, 0.00, 0.00, 0.00, 0.00, 0.00, 0.00, 0.000, 0.000, 0.000, 11:01:45.059, 1561474905059
184, -32931.18, 0.00, 0.00, 0.00, 0.00, 0.00, 0.00, 0.00, 0.000, 0.000, 0.000, 11:01:45.059, 1561474905059
185, -33963.21, 0.00, 0.00, 0.00, 0.00, 0.00, 0.00, 0.00, 0.000, 0.000, 0.000, 11:01:45.059, 1561474905059
186, -34670.28, 0.00, 0.00, 0.00, 0.00, 0.00, 0.00, 0.00, 0.000, 0.000, 0.000, 11:01:45.059, 1561474905059
187, -33731.26, 0.00, 0.00, 0.00, 0.00, 0.00, 0.00, 0.00, 0.000, 0.000, 0.000, 11:01:45.059, 1561474905059
188, -32877.70, 0.00, 0.00, 0.00, 0.00, 0.00, 0.00, 0.00, 0.000, 0.000, 0.000, 11:01:45.059, 1561474905059
189, -33700.48, 0.00, 0.00, 0.00, 0.00, 0.00, 0.00, 0.00, 0.070, -0.032, 1.028, 11:01:45.059, 1561474905059
190, -34661.68, 0.00, 0.00, 0.00, 0.00, 0.00, 0.00, 0.00, 0.000, 0.000, 0.000, 11:01:45.060, 1561474905060
191, -33958.82, 0.00, 0.00, 0.00, 0.00, 0.00, 0.00, 0.00, 0.000, 0.000, 0.000, 11:01:45.060, 1561474905060
192, -32920.65, 0.00, 0.00, 0.00, 0.00, 0.00, 0.00, 0.00, 0.000, 0.000, 0.000, 11:01:45.060, 1561474905060
193, -33497.13, 0.00, 0.00, 0.00, 0.00, 0.00, 0.00, 0.00, 0.000, 0.000, 0.000, 11:01:45.060, 1561474905060
194, -34601.28, 0.00, 0.00, 0.00, 0.00, 0.00, 0.00, 0.00, 0.000, 0.000, 0.000, 11:01:45.061, 1561474905061
195, -34169.25, 0.00, 0.00, 0.00, 0.00, 0.00, 0.00, 0.00, 0.000, 0.000, 0.000, 11:01:45.061, 1561474905061
196, -33015.98, 0.00, 0.00, 0.00, 0.00, 0.00, 0.00, 0.00, 0.000, 0.000, 0.000, 11:01:45.061, 1561474905061
197, -33322.18, 0.00, 0.00, 0.00, 0.00, 0.00, 0.00, 0.00, 0.000, 0.000, 0.000, 11:01:45.061, 1561474905061
198, -34499.16, 0.00, 0.00, 0.00, 0.00, 0.00, 0.00, 0.00, 0.000, 0.000, 0.000, 11:01:45.061, 1561474905061
199, -34338.40, 0.00, 0.00, 0.00, 0.00, 0.00, 0.00, 0.00, 0.068, -0.032, 1.032, 11:01:45.061, 1561474905061
200, -33140.91, 0.00, 0.00, 0.00, 0.00, 0.00, 0.00, 0.00, 0.000, 0.000, 0.000, 11:01:45.061, 1561474905061
201, -33122.13, 0.00, 0.00, 0.00, 0.00, 0.00, 0.00, 0.00, 0.000, 0.000, 0.000, 11:01:45.061, 1561474905061
202, -34334.98, 0.00, 0.00, 0.00, 0.00, 0.00, 0.00, 0.00, 0.000, 0.000, 0.000, 11:01:45.061, 1561474905061
203, -34492.43, 0.00, 0.00, 0.00, 0.00, 0.00, 0.00, 0.00, 0.000, 0.000, 0.000, 11:01:45.061, 1561474905061
204, -33316.26, 0.00, 0.00, 0.00, 0.00, 0.00, 0.00, 0.00, 0.000, 0.000, 0.000, 11:01:45.062, 1561474905062
205, -33009.66, 0.00, 0.00, 0.00, 0.00, 0.00, 0.00, 0.00, 0.000, 0.000, 0.000, 11:01:45.062, 1561474905062
206, -34163.66, 0.00, 0.00, 0.00, 0.00, 0.00, 0.00, 0.00, 0.000, 0.000, 0.000, 11:01:45.062, 1561474905062
207, -34622.89, 0.00, 0.00, 0.00, 0.00, 0.00, 0.00, 0.00, 0.000, 0.000, 0.000, 11:01:45.062, 1561474905062
208, -33506.43, 0.00, 0.00, 0.00, 0.00, 0.00, 0.00, 0.00, 0.000, 0.000, 0.000, 11:01:45.063, 1561474905063
209, -32897.90, 0.00, 0.00, 0.00, 0.00, 0.00, 0.00, 0.00, 0.062, -0.030, 1.032, 11:01:45.063, 1561474905063
210, -33929.12, 0.00, 0.00, 0.00, 0.00, 0.00, 0.00, 0.00, 0.000, 0.000, 0.000, 11:01:45.063, 1561474905063
211, -34666.08, 0.00, 0.00, 0.00, 0.00, 0.00, 0.00, 0.00, 0.000, 0.000, 0.000, 11:01:45.063, 1561474905063
212, -33733.16, 0.00, 0.00, 0.00, 0.00, 0.00, 0.00, 0.00, 0.000, 0.000, 0.000, 11:01:45.064, 1561474905064
213, -32894.03, 0.00, 0.00, 0.00, 0.00, 0.00, 0.00, 0.00, 0.000, 0.000, 0.000, 11:01:45.064, 1561474905064
214, -33734.64, 0.00, 0.00, 0.00, 0.00, 0.00, 0.00, 0.00, 0.000, 0.000, 0.000, 11:01:45.064, 1561474905064
215, -34677.32, 0.00, 0.00, 0.00, 0.00, 0.00, 0.00, 0.00, 0.000, 0.000, 0.000, 11:01:45.064, 1561474905064
216, -33954.45, 0.00, 0.00, 0.00, 0.00, 0.00, 0.00, 0.00, 0.000, 0.000, 0.000, 11:01:45.064, 1561474905064
217, -32915.49, 0.00, 0.00, 0.00, 0.00, 0.00, 0.00, 0.00, 0.000, 0.000, 0.000, 11:01:45.065, 1561474905065
218, -33506.96, 0.00, 0.00, 0.00, 0.00, 0.00, 0.00, 0.00, 0.000, 0.000, 0.000, 11:01:45.065, 1561474905065
219, -34607.63, 0.00, 0.00, 0.00, 0.00, 0.00, 0.00, 0.00, 0.064, -0.028, 1.028, 11:01:45.065, 1561474905065
220, -34161.69, 0.00, 0.00, 0.00, 0.00, 0.00, 0.00, 0.00, 0.000, 0.000, 0.000, 11:01:45.065, 1561474905065
221, -32997.88, 0.00, 0.00, 0.00, 0.00, 0.00, 0.00, 0.00, 0.000, 0.000, 0.000, 11:01:45.066, 1561474905066
222, -33297.15, 0.00, 0.00, 0.00, 0.00, 0.00, 0.00, 0.00, 0.000, 0.000, 0.000, 11:01:45.066, 1561474905066
223, -34496.38, 0.00, 0.00, 0.00, 0.00, 0.00, 0.00, 0.00, 0.000, 0.000, 0.000, 11:01:45.066, 1561474905066
224, -34376.04, 0.00, 0.00, 0.00, 0.00, 0.00, 0.00, 0.00, 0.000, 0.000, 0.000, 11:01:45.066, 1561474905066
225, -33168.82, 0.00, 0.00, 0.00, 0.00, 0.00, 0.00, 0.00, 0.000, 0.000, 0.000, 11:01:45.536, 1561474905536
226, -33151.05, 0.00, 0.00, 0.00, 0.00, 0.00, 0.00, 0.00, 0.000, 0.000, 0.000, 11:01:45.536, 1561474905536
227, -34394.17, 0.00, 0.00, 0.00, 0.00, 0.00, 0.00, 0.00, 0.000, 0.000, 0.000, 11:01:45.536, 1561474905536
228, -34578.97, 0.00, 0.00, 0.00, 0.00, 0.00, 0.00, 0.00, 0.000, 0.000, 0.000, 11:01:45.536, 1561474905536
229, -33375.73, 0.00, 0.00, 0.00, 0.00, 0.00, 0.00, 0.00, 0.064, -0.036, 1.028, 11:01:45.537, 1561474905537
230, -33039.72, 0.00, 0.00, 0.00, 0.00, 0.00, 0.00, 0.00, 0.000, 0.000, 0.000, 11:01:45.537, 1561474905537
231, -34219.16, 0.00, 0.00, 0.00, 0.00, 0.00, 0.00, 0.00, 0.000, 0.000, 0.000, 11:01:45.537, 1561474905537
232, -34682.93, 0.00, 0.00, 0.00, 0.00, 0.00, 0.00, 0.00, 0.000, 0.000, 0.000, 11:01:45.537, 1561474905537
233, -33554.73, 0.00, 0.00, 0.00, 0.00, 0.00, 0.00, 0.00, 0.000, 0.000, 0.000, 11:01:45.537, 1561474905537
234, -32941.91, 0.00, 0.00, 0.00, 0.00, 0.00, 0.00, 0.00, 0.000, 0.000, 0.000, 11:01:45.537, 1561474905537
235, -33996.64, 0.00, 0.00, 0.00, 0.00, 0.00, 0.00, 0.00, 0.000, 0.000, 0.000, 11:01:45.537, 1561474905537
236, -34740.76, 0.00, 0.00, 0.00, 0.00, 0.00, 0.00, 0.00, 0.000, 0.000, 0.000, 11:01:45.537, 1561474905537
237, -33792.68, 0.00, 0.00, 0.00, 0.00, 0.00, 0.00, 0.00, 0.000, 0.000, 0.000, 11:01:45.537, 1561474905537
238, -32957.15, 0.00, 0.00, 0.00, 0.00, 0.00, 0.00, 0.00, 0.000, 0.000, 0.000, 11:01:45.537, 1561474905537
239, -33797.33, 0.00, 0.00, 0.00, 0.00, 0.00, 0.00, 0.00, 0.000, 0.000, 0.000, 11:01:45.537, 1561474905537
240, -34740.33, 0.00, 0.00, 0.00, 0.00, 0.00, 0.00, 0.00, 0.064, -0.032, 1.032, 11:01:45.537, 1561474905537
241, -34006.88, 0.00, 0.00, 0.00, 0.00, 0.00, 0.00, 0.00, 0.000, 0.000, 0.000, 11:01:45.537, 1561474905537
242, -32968.09, 0.00, 0.00, 0.00, 0.00, 0.00, 0.00, 0.00, 0.000, 0.000, 0.000, 11:01:45.537, 1561474905537
243, -33571.02, 0.00, 0.00, 0.00, 0.00, 0.00, 0.00, 0.00, 0.000, 0.000, 0.000, 11:01:45.537, 1561474905537
244, -34651.26, 0.00, 0.00, 0.00, 0.00, 0.00, 0.00, 0.00, 0.000, 0.000, 0.000, 11:01:45.537, 1561474905537
245, -34166.72, 0.00, 0.00, 0.00, 0.00, 0.00, 0.00, 0.00, 0.000, 0.000, 0.000, 11:01:45.537, 1561474905537
246, -32987.04, 0.00, 0.00, 0.00, 0.00, 0.00, 0.00, 0.00, 0.000, 0.000, 0.000, 11:01:45.537, 1561474905537
247, -33296.75, 0.00, 0.00, 0.00, 0.00, 0.00, 0.00, 0.00, 0.000, 0.000, 0.000, 11:01:45.538, 1561474905538
248, -34519.50, 0.00, 0.00, 0.00, 0.00, 0.00, 0.00, 0.00, 0.000, 0.000, 0.000, 11:01:45.538, 1561474905538
249, -34408.81, 0.00, 0.00, 0.00, 0.00, 0.00, 0.00, 0.00, 0.000, 0.000, 0.000, 11:01:45.538, 1561474905538
250, -33238.21, 0.00, 0.00, 0.00, 0.00, 0.00, 0.00, 0.00, 0.066, -0.032, 1.028, 11:01:45.538, 1561474905538
251, -33236.91, 0.00, 0.00, 0.00, 0.00, 0.00, 0.00, 0.00, 0.000, 0.000, 0.000, 11:01:45.538, 1561474905538
252, -34453.85, 0.00, 0.00, 0.00, 0.00, 0.00, 0.00, 0.00, 0.000, 0.000, 0.000, 11:01:45.538, 1561474905538
253, -34588.38, 0.00, 0.00, 0.00, 0.00, 0.00, 0.00, 0.00, 0.000, 0.000, 0.000, 11:01:45.539, 1561474905539
254, -33368.61, 0.00, 0.00, 0.00, 0.00, 0.00, 0.00, 0.00, 0.000, 0.000, 0.000, 11:01:45.539, 1561474905539
255, -33029.66, 0.00, 0.00, 0.00, 0.00, 0.00, 0.00, 0.00, 0.000, 0.000, 0.000, 11:01:45.539, 1561474905539
0, -34178.10, 0.00, 0.00, 0.00, 0.00, 0.00, 0.00, 0.00, 0.000, 0.000, 0.000, 11:01:45.539, 1561474905539
1, -34657.25, 0.00, 0.00, 0.00, 0.00, 0.00, 0.00, 0.00, 0.000, 0.000, 0.000, 11:01:45.539, 1561474905539
2, -33545.52, 0.00, 0.00, 0.00, 0.00, 0.00, 0.00, 0.00, 0.000, 0.000, 0.000, 11:01:45.539, 1561474905539
3, -32945.84, 0.00, 0.00, 0.00, 0.00, 0.00, 0.00, 0.00, 0.000, 0.000, 0.000, 11:01:45.539, 1561474905539
4, -34000.69, 0.00, 0.00, 0.00, 0.00, 0.00, 0.00, 0.00, 0.066, -0.032, 1.036, 11:01:45.539, 1561474905539
5, -34731.46, 0.00, 0.00, 0.00, 0.00, 0.00, 0.00, 0.00, 0.000, 0.000, 0.000, 11:01:45.540, 1561474905540
6, -33773.33, 0.00, 0.00, 0.00, 0.00, 0.00, 0.00, 0.00, 0.000, 0.000, 0.000, 11:01:45.540, 1561474905540
7, -32926.11, 0.00, 0.00, 0.00, 0.00, 0.00, 0.00, 0.00, 0.000, 0.000, 0.000, 11:01:45.540, 1561474905540
8, -33776.93, 0.00, 0.00, 0.00, 0.00, 0.00, 0.00, 0.00, 0.000, 0.000, 0.000, 11:01:45.540, 1561474905540
9, -34714.16, 0.00, 0.00, 0.00, 0.00, 0.00, 0.00, 0.00, 0.000, 0.000, 0.000, 11:01:45.540, 1561474905540
10, -33993.34, 0.00, 0.00, 0.00, 0.00, 0.00, 0.00, 0.00, 0.000, 0.000, 0.000, 11:01:45.540, 1561474905540
11, -32951.93, 0.00, 0.00, 0.00, 0.00, 0.00, 0.00, 0.00, 0.000, 0.000, 0.000, 11:01:45.540, 1561474905540
12, -33534.52, 0.00, 0.00, 0.00, 0.00, 0.00, 0.00, 0.00, 0.000, 0.000, 0.000, 11:01:45.541, 1561474905541
13, -34632.66, 0.00, 0.00, 0.00, 0.00, 0.00, 0.00, 0.00, 0.000, 0.000, 0.000, 11:01:45.541, 1561474905541
14, -34166.09, 0.00, 0.00, 0.00, 0.00, 0.00, 0.00, 0.00, 0.066, -0.030, 1.032, 11:01:45.541, 1561474905541
15, -33026.47, 0.00, 0.00, 0.00, 0.00, 0.00, 0.00, 0.00, 0.000, 0.000, 0.000, 11:01:45.541, 1561474905541
16, -33335.55, 0.00, 0.00, 0.00, 0.00, 0.00, 0.00, 0.00, 0.000, 0.000, 0.000, 11:01:45.541, 1561474905541
17, -34538.52, 0.00, 0.00, 0.00, 0.00, 0.00, 0.00, 0.00, 0.000, 0.000, 0.000, 11:01:45.541, 1561474905541
18, -34384.56, 0.00, 0.00, 0.00, 0.00, 0.00, 0.00, 0.00, 0.000, 0.000, 0.000, 11:01:45.542, 1561474905542
19, -33168.67, 0.00, 0.00, 0.00, 0.00, 0.00, 0.00, 0.00, 0.000, 0.000, 0.000, 11:01:45.542, 1561474905542
20, -33152.04, 0.00, 0.00, 0.00, 0.00, 0.00, 0.00, 0.00, 0.000, 0.000, 0.000, 11:01:45.542, 1561474905542
21, -34358.81, 0.00, 0.00, 0.00, 0.00, 0.00, 0.00, 0.00, 0.000, 0.000, 0.000, 11:01:45.542, 1561474905542
22, -34518.22, 0.00, 0.00, 0.00, 0.00, 0.00, 0.00, 0.00, 0.000, 0.000, 0.000, 11:01:45.542, 1561474905542
23, -33332.02, 0.00, 0.00, 0.00, 0.00, 0.00, 0.00, 0.00, 0.000, 0.000, 0.000, 11:01:45.542, 1561474905542
24, -33022.55, 0.00, 0.00, 0.00, 0.00, 0.00, 0.00, 0.00, 0.062, -0.026, 1.032, 11:01:45.542, 1561474905542
25, -34186.97, 0.00, 0.00, 0.00, 0.00, 0.00, 0.00, 0.00, 0.000, 0.000, 0.000, 11:01:45.542, 1561474905542
26, -34637.25, 0.00, 0.00, 0.00, 0.00, 0.00, 0.00, 0.00, 0.000, 0.000, 0.000, 11:01:45.542, 1561474905542
27, -33531.01, 0.00, 0.00, 0.00, 0.00, 0.00, 0.00, 0.00, 0.000, 0.000, 0.000, 11:01:45.542, 1561474905542
28, -32922.87, 0.00, 0.00, 0.00, 0.00, 0.00, 0.00, 0.00, 0.000, 0.000, 0.000, 11:01:45.542, 1561474905542
29, -33971.27, 0.00, 0.00, 0.00, 0.00, 0.00, 0.00, 0.00, 0.000, 0.000, 0.000, 11:01:45.542, 1561474905542
30, -34680.59, 0.00, 0.00, 0.00, 0.00, 0.00, 0.00, 0.00, 0.000, 0.000, 0.000, 11:01:45.542, 1561474905542
31, -33705.02, 0.00, 0.00, 0.00, 0.00, 0.00, 0.00, 0.00, 0.000, 0.000, 0.000, 11:01:45.542, 1561474905542
32, -32881.96, 0.00, 0.00, 0.00, 0.00, 0.00, 0.00, 0.00, 0.000, 0.000, 0.000, 11:01:45.544, 1561474905544
33, -33722.12, 0.00, 0.00, 0.00, 0.00, 0.00, 0.00, 0.00, 0.000, 0.000, 0.000, 11:01:45.544, 1561474905544
34, -34658.03, 0.00, 0.00, 0.00, 0.00, 0.00, 0.00, 0.00, 0.000, 0.000, 0.000, 11:01:45.544, 1561474905544
35, -33922.14, 0.00, 0.00, 0.00, 0.00, 0.00, 0.00, 0.00, 0.062, -0.026, 1.030, 11:01:45.545, 1561474905545
36, -32882.90, 0.00, 0.00, 0.00, 0.00, 0.00, 0.00, 0.00, 0.000, 0.000, 0.000, 11:01:45.545, 1561474905545
37, -33497.62, 0.00, 0.00, 0.00, 0.00, 0.00, 0.00, 0.00, 0.000, 0.000, 0.000, 11:01:45.545, 1561474905545
38, -34613.22, 0.00, 0.00, 0.00, 0.00, 0.00, 0.00, 0.00, 0.000, 0.000, 0.000, 11:01:45.545, 1561474905545
39, -34154.67, 0.00, 0.00, 0.00, 0.00, 0.00, 0.00, 0.00, 0.000, 0.000, 0.000, 11:01:45.545, 1561474905545
40, -32976.80, 0.00, 0.00, 0.00, 0.00, 0.00, 0.00, 0.00, 0.000, 0.000, 0.000, 11:01:45.545, 1561474905545
41, -33286.57, 0.00, 0.00, 0.00, 0.00, 0.00, 0.00, 0.00, 0.000, 0.000, 0.000, 11:01:45.546, 1561474905546
42, -34508.54, 0.00, 0.00, 0.00, 0.00, 0.00, 0.00, 0.00, 0.000, 0.000, 0.000, 11:01:45.546, 1561474905546
43, -34357.36, 0.00, 0.00, 0.00, 0.00, 0.00, 0.00, 0.00, 0.000, 0.000, 0.000, 11:01:45.546, 1561474905546
44, -33135.90, 0.00, 0.00, 0.00, 0.00, 0.00, 0.00, 0.00, 0.000, 0.000, 0.000, 11:01:45.546, 1561474905546
45, -33129.00, 0.00, 0.00, 0.00, 0.00, 0.00, 0.00, 0.00, 0.064, -0.028, 1.032, 11:01:45.547, 1561474905547
46, -34349.80, 0.00, 0.00, 0.00, 0.00, 0.00, 0.00, 0.00, 0.000, 0.000, 0.000, 11:01:45.547, 1561474905547
47, -34517.62, 0.00, 0.00, 0.00, 0.00, 0.00, 0.00, 0.00, 0.000, 0.000, 0.000, 11:01:45.547, 1561474905547
48, -33317.00, 0.00, 0.00, 0.00, 0.00, 0.00, 0.00, 0.00, 0.000, 0.000, 0.000, 11:01:45.547, 1561474905547
49, -33002.48, 0.00, 0.00, 0.00, 0.00, 0.00, 0.00, 0.00, 0.000, 0.000, 0.000, 11:01:45.547, 1561474905547
50, -34159.63, 0.00, 0.00, 0.00, 0.00, 0.00, 0.00, 0.00, 0.000, 0.000, 0.000, 11:01:45.547, 1561474905547
51, -34612.77, 0.00, 0.00, 0.00, 0.00, 0.00, 0.00, 0.00, 0.000, 0.000, 0.000, 11:01:45.547, 1561474905547
52, -33504.48, 0.00, 0.00, 0.00, 0.00, 0.00, 0.00, 0.00, 0.000, 0.000, 0.000, 11:01:45.547, 1561474905547
53, -32894.26, 0.00, 0.00, 0.00, 0.00, 0.00, 0.00, 0.00, 0.000, 0.000, 0.000, 11:01:45.547, 1561474905547
54, -33921.16, 0.00, 0.00, 0.00, 0.00, 0.00, 0.00, 0.00, 0.000, 0.000, 0.000, 11:01:45.547, 1561474905547
55, -34646.79, 0.00, 0.00, 0.00, 0.00, 0.00, 0.00, 0.00, 0.064, -0.024, 1.030, 11:01:45.547, 1561474905547
56, -33689.62, 0.00, 0.00, 0.00, 0.00, 0.00, 0.00, 0.00, 0.000, 0.000, 0.000, 11:01:45.547, 1561474905547
57, -32847.39, 0.00, 0.00, 0.00, 0.00, 0.00, 0.00, 0.00, 0.000, 0.000, 0.000, 11:01:45.548, 1561474905548
58, -33727.13, 0.00, 0.00, 0.00, 0.00, 0.00, 0.00, 0.00, 0.000, 0.000, 0.000, 11:01:45.548, 1561474905548
59, -34663.57, 0.00, 0.00, 0.00, 0.00, 0.00, 0.00, 0.00, 0.000, 0.000, 0.000, 11:01:45.548, 1561474905548
60, -33930.02, 0.00, 0.00, 0.00, 0.00, 0.00, 0.00, 0.00, 0.000, 0.000, 0.000, 11:01:45.548, 1561474905548
61, -32904.32, 0.00, 0.00, 0.00, 0.00, 0.00, 0.00, 0.00, 0.000, 0.000, 0.000, 11:01:45.548, 1561474905548
62, -33505.20, 0.00, 0.00, 0.00, 0.00, 0.00, 0.00, 0.00, 0.000, 0.000, 0.000, 11:01:45.548, 1561474905548
63, -34609.98, 0.00, 0.00, 0.00, 0.00, 0.00, 0.00, 0.00, 0.000, 0.000, 0.000, 11:01:45.548, 1561474905548
64, -34158.98, 0.00, 0.00, 0.00, 0.00, 0.00, 0.00, 0.00, 0.000, 0.000, 0.000, 11:01:45.548, 1561474905548
65, -32984.94, 0.00, 0.00, 0.00, 0.00, 0.00, 0.00, 0.00, 0.060, -0.032, 1.034, 11:01:45.548, 1561474905548
66, -33283.38, 0.00, 0.00, 0.00, 0.00, 0.00, 0.00, 0.00, 0.000, 0.000, 0.000, 11:01:45.548, 1561474905548
67, -34507.34, 0.00, 0.00, 0.00, 0.00, 0.00, 0.00, 0.00, 0.000, 0.000, 0.000, 11:01:45.548, 1561474905548
68, -34349.85, 0.00, 0.00, 0.00, 0.00, 0.00, 0.00, 0.00, 0.000, 0.000, 0.000, 11:01:45.548, 1561474905548
69, -33126.09, 0.00, 0.00, 0.00, 0.00, 0.00, 0.00, 0.00, 0.000, 0.000, 0.000, 11:01:45.548, 1561474905548
70, -33115.27, 0.00, 0.00, 0.00, 0.00, 0.00, 0.00, 0.00, 0.000, 0.000, 0.000, 11:01:45.549, 1561474905549
71, -34326.49, 0.00, 0.00, 0.00, 0.00, 0.00, 0.00, 0.00, 0.000, 0.000, 0.000, 11:01:45.549, 1561474905549
72, -34467.15, 0.00, 0.00, 0.00, 0.00, 0.00, 0.00, 0.00, 0.000, 0.000, 0.000, 11:01:45.549, 1561474905549
73, -33255.57, 0.00, 0.00, 0.00, 0.00, 0.00, 0.00, 0.00, 0.000, 0.000, 0.000, 11:01:45.549, 1561474905549
74, -32945.66, 0.00, 0.00, 0.00, 0.00, 0.00, 0.00, 0.00, 0.000, 0.000, 0.000, 11:01:45.549, 1561474905549
75, -34124.16, 0.00, 0.00, 0.00, 0.00, 0.00, 0.00, 0.00, 0.062, -0.034, 1.036, 11:01:45.549, 1561474905549
76, -34563.48, 0.00, 0.00, 0.00, 0.00, 0.00, 0.00, 0.00, 0.000, 0.000, 0.000, 11:01:45.549, 1561474905549
77, -33449.77, 0.00, 0.00, 0.00, 0.00, 0.00, 0.00, 0.00, 0.000, 0.000, 0.000, 11:01:45.549, 1561474905549
78, -32872.46, 0.00, 0.00, 0.00, 0.00, 0.00, 0.00, 0.00, 0.000, 0.000, 0.000, 11:01:45.549, 1561474905549
79, -33923.44, 0.00, 0.00, 0.00, 0.00, 0.00, 0.00, 0.00, 0.000, 0.000, 0.000, 11:01:45.549, 1561474905549
80, -34636.69, 0.00, 0.00, 0.00, 0.00, 0.00, 0.00, 0.00, 0.000, 0.000, 0.000, 11:01:45.549, 1561474905549
81, -33689.55, 0.00, 0.00, 0.00, 0.00, 0.00, 0.00, 0.00, 0.000, 0.000, 0.000, 11:01:45.549, 1561474905549
82, -32838.64, 0.00, 0.00, 0.00, 0.00, 0.00, 0.00, 0.00, 0.000, 0.000, 0.000, 11:01:45.549, 1561474905549
83, -33682.20, 0.00, 0.00, 0.00, 0.00, 0.00, 0.00, 0.00, 0.000, 0.000, 0.000, 11:01:45.549, 1561474905549
84, -34632.48, 0.00, 0.00, 0.00, 0.00, 0.00, 0.00, 0.00, 0.000, 0.000, 0.000, 11:01:45.550, 1561474905550
85, -33877.51, 0.00, 0.00, 0.00, 0.00, 0.00, 0.00, 0.00, 0.058, -0.032, 1.028, 11:01:45.550, 1561474905550
86, -32837.30, 0.00, 0.00, 0.00, 0.00, 0.00, 0.00, 0.00, 0.000, 0.000, 0.000, 11:01:45.550, 1561474905550
87, -33454.55, 0.00, 0.00, 0.00, 0.00, 0.00, 0.00, 0.00, 0.000, 0.000, 0.000, 11:01:45.550, 1561474905550
88, -34550.41, 0.00, 0.00, 0.00, 0.00, 0.00, 0.00, 0.00, 0.000, 0.000, 0.000, 11:01:45.550, 1561474905550
89, -34095.98, 0.00, 0.00, 0.00, 0.00, 0.00, 0.00, 0.00, 0.000, 0.000, 0.000, 11:01:46.015, 1561474906015
90, -32904.23, 0.00, 0.00, 0.00, 0.00, 0.00, 0.00, 0.00, 0.000, 0.000, 0.000, 11:01:46.016, 1561474906016
91, -33205.84, 0.00, 0.00, 0.00, 0.00, 0.00, 0.00, 0.00, 0.000, 0.000, 0.000, 11:01:46.016, 1561474906016
92, -34434.56, 0.00, 0.00, 0.00, 0.00, 0.00, 0.00, 0.00, 0.000, 0.000, 0.000, 11:01:46.016, 1561474906016
93, -34295.42, 0.00, 0.00, 0.00, 0.00, 0.00, 0.00, 0.00, 0.000, 0.000, 0.000, 11:01:46.016, 1561474906016
94, -33069.00, 0.00, 0.00, 0.00, 0.00, 0.00, 0.00, 0.00, 0.000, 0.000, 0.000, 11:01:46.016, 1561474906016
95, -33041.78, 0.00, 0.00, 0.00, 0.00, 0.00, 0.00, 0.00, 0.000, 0.000, 0.000, 11:01:46.016, 1561474906016
96, -34275.75, 0.00, 0.00, 0.00, 0.00, 0.00, 0.00, 0.00, 0.054, -0.034, 1.028, 11:01:46.016, 1561474906016
97, -34460.82, 0.00, 0.00, 0.00, 0.00, 0.00, 0.00, 0.00, 0.000, 0.000, 0.000, 11:01:46.016, 1561474906016
98, -33236.28, 0.00, 0.00, 0.00, 0.00, 0.00, 0.00, 0.00, 0.000, 0.000, 0.000, 11:01:46.016, 1561474906016
99, -32872.73, 0.00, 0.00, 0.00, 0.00, 0.00, 0.00, 0.00, 0.000, 0.000, 0.000, 11:01:46.016, 1561474906016
100, -34038.78, 0.00, 0.00, 0.00, 0.00, 0.00, 0.00, 0.00, 0.000, 0.000, 0.000, 11:01:46.016, 1561474906016
101, -34545.78, 0.00, 0.00, 0.00, 0.00, 0.00, 0.00, 0.00, 0.000, 0.000, 0.000, 11:01:46.016, 1561474906016
102, -33423.66, 0.00, 0.00, 0.00, 0.00, 0.00, 0.00, 0.00, 0.000, 0.000, 0.000, 11:01:46.016, 1561474906016
103, -32764.64, 0.00, 0.00, 0.00, 0.00, 0.00, 0.00, 0.00, 0.000, 0.000, 0.000, 11:01:46.017, 1561474906017
104, -33780.79, 0.00, 0.00, 0.00, 0.00, 0.00, 0.00, 0.00, 0.000, 0.000, 0.000, 11:01:46.017, 1561474906017
105, -34577.84, 0.00, 0.00, 0.00, 0.00, 0.00, 0.00, 0.00, 0.000, 0.000, 0.000, 11:01:46.017, 1561474906017
106, -33656.54, 0.00, 0.00, 0.00, 0.00, 0.00, 0.00, 0.00, 0.062, -0.036, 1.026, 11:01:46.017, 1561474906017
107, -32766.07, 0.00, 0.00, 0.00, 0.00, 0.00, 0.00, 0.00, 0.000, 0.000, 0.000, 11:01:46.018, 1561474906018
108, -33578.33, 0.00, 0.00, 0.00, 0.00, 0.00, 0.00, 0.00, 0.000, 0.000, 0.000, 11:01:46.018, 1561474906018
109, -34569.90, 0.00, 0.00, 0.00, 0.00, 0.00, 0.00, 0.00, 0.000, 0.000, 0.000, 11:01:46.018, 1561474906018
110, -33863.20, 0.00, 0.00, 0.00, 0.00, 0.00, 0.00, 0.00, 0.000, 0.000, 0.000, 11:01:46.018, 1561474906018
111, -32784.20, 0.00, 0.00, 0.00, 0.00, 0.00, 0.00, 0.00, 0.000, 0.000, 0.000, 11:01:46.018, 1561474906018
112, -33344.36, 0.00, 0.00, 0.00, 0.00, 0.00, 0.00, 0.00, 0.000, 0.000, 0.000, 11:01:46.018, 1561474906018
113, -34485.48, 0.00, 0.00, 0.00, 0.00, 0.00, 0.00, 0.00, 0.000, 0.000, 0.000, 11:01:46.018, 1561474906018
114, -34070.70, 0.00, 0.00, 0.00, 0.00, 0.00, 0.00, 0.00, 0.000, 0.000, 0.000, 11:01:46.018, 1561474906018
115, -32867.30, 0.00, 0.00, 0.00, 0.00, 0.00, 0.00, 0.00, 0.000, 0.000, 0.000, 11:01:46.018, 1561474906018
116, -33131.09, 0.00, 0.00, 0.00, 0.00, 0.00, 0.00, 0.00, 0.058, -0.034, 1.032, 11:01:46.018, 1561474906018
117, -34353.00, 0.00, 0.00, 0.00, 0.00, 0.00, 0.00, 0.00, 0.000, 0.000, 0.000, 11:01:46.018, 1561474906018
118, -34256.93, 0.00, 0.00, 0.00, 0.00, 0.00, 0.00, 0.00, 0.000, 0.000, 0.000, 11:01:46.018, 1561474906018
119, -33029.29, 0.00, 0.00, 0.00, 0.00, 0.00, 0.00, 0.00, 0.000, 0.000, 0.000, 11:01:46.019, 1561474906019
120, -32968.75, 0.00, 0.00, 0.00, 0.00, 0.00, 0.00, 0.00, 0.000, 0.000, 0.000, 11:01:46.019, 1561474906019
121, -34201.61, 0.00, 0.00, 0.00, 0.00, 0.00, 0.00, 0.00, 0.000, 0.000, 0.000, 11:01:46.019, 1561474906019
122, -34423.18, 0.00, 0.00, 0.00, 0.00, 0.00, 0.00, 0.00, 0.000, 0.000, 0.000, 11:01:46.019, 1561474906019
123, -33194.95, 0.00, 0.00, 0.00, 0.00, 0.00, 0.00, 0.00, 0.000, 0.000, 0.000, 11:01:46.019, 1561474906019
124, -32797.96, 0.00, 0.00, 0.00, 0.00, 0.00, 0.00, 0.00, 0.000, 0.000, 0.000, 11:01:46.019, 1561474906019
125, -33990.65, 0.00, 0.00, 0.00, 0.00, 0.00, 0.00, 0.00, 0.000, 0.000, 0.000, 11:01:46.019, 1561474906019
126, -34514.16, 0.00, 0.00, 0.00, 0.00, 0.00, 0.00, 0.00, 0.066, -0.028, 1.032, 11:01:46.019, 1561474906019
127, -33386.89, 0.00, 0.00, 0.00, 0.00, 0.00, 0.00, 0.00, 0.000, 0.000, 0.000, 11:01:46.019, 1561474906019
128, -32709.07, 0.00, 0.00, 0.00, 0.00, 0.00, 0.00, 0.00, 0.000, 0.000, 0.000, 11:01:46.019, 1561474906019
129, -33756.54, 0.00, 0.00, 0.00, 0.00, 0.00, 0.00, 0.00, 0.000, 0.000, 0.000, 11:01:46.019, 1561474906019
130, -34574.68, 0.00, 0.00, 0.00, 0.00, 0.00, 0.00, 0.00, 0.000, 0.000, 0.000, 11:01:46.019, 1561474906019
131, -33620.26, 0.00, 0.00, 0.00, 0.00, 0.00, 0.00, 0.00, 0.000, 0.000, 0.000, 11:01:46.019, 1561474906019
132, -32676.39, 0.00, 0.00, 0.00, 0.00, 0.00, 0.00, 0.00, 0.000, 0.000, 0.000, 11:01:46.019, 1561474906019
133, -33514.52, 0.00, 0.00, 0.00, 0.00, 0.00, 0.00, 0.00, 0.000, 0.000, 0.000, 11:01:46.019, 1561474906019
134, -34553.49, 0.00, 0.00, 0.00, 0.00, 0.00, 0.00, 0.00, 0.000, 0.000, 0.000, 11:01:46.019, 1561474906019
135, -33847.36, 0.00, 0.00, 0.00, 0.00, 0.00, 0.00, 0.00, 0.000, 0.000, 0.000, 11:01:46.019, 1561474906019
136, -32733.44, 0.00, 0.00, 0.00, 0.00, 0.00, 0.00, 0.00, 0.058, -0.030, 1.034, 11:01:46.019, 1561474906019
137, -33290.78, 0.00, 0.00, 0.00, 0.00, 0.00, 0.00, 0.00, 0.000, 0.000, 0.000, 11:01:46.019, 1561474906019
138, -34471.80, 0.00, 0.00, 0.00, 0.00, 0.00, 0.00, 0.00, 0.000, 0.000, 0.000, 11:01:46.020, 1561474906020
139, -34044.43, 0.00, 0.00, 0.00, 0.00, 0.00, 0.00, 0.00, 0.000, 0.000, 0.000, 11:01:46.020, 1561474906020
140, -32812.98, 0.00, 0.00, 0.00, 0.00, 0.00, 0.00, 0.00, 0.000, 0.000, 0.000, 11:01:46.020, 1561474906020
141, -33047.84, 0.00, 0.00, 0.00, 0.00, 0.00, 0.00, 0.00, 0.000, 0.000, 0.000, 11:01:46.020, 1561474906020
142, -34312.39, 0.00, 0.00, 0.00, 0.00, 0.00, 0.00, 0.00, 0.000, 0.000, 0.000, 11:01:46.020, 1561474906020
143, -34218.64, 0.00, 0.00, 0.00, 0.00, 0.00, 0.00, 0.00, 0.000, 0.000, 0.000, 11:01:46.020, 1561474906020
144, -32946.89, 0.00, 0.00, 0.00, 0.00, 0.00, 0.00, 0.00, 0.000, 0.000, 0.000, 11:01:46.020, 1561474906020
145, -32892.85, 0.00, 0.00, 0.00, 0.00, 0.00, 0.00, 0.00, 0.000, 0.000, 0.000, 11:01:46.020, 1561474906020
146, -34158.32, 0.00, 0.00, 0.00, 0.00, 0.00, 0.00, 0.00, 0.062, -0.024, 1.032, 11:01:46.020, 1561474906020
147, -34392.41, 0.00, 0.00, 0.00, 0.00, 0.00, 0.00, 0.00, 0.000, 0.000, 0.000, 11:01:46.020, 1561474906020
148, -33116.72, 0.00, 0.00, 0.00, 0.00, 0.00, 0.00, 0.00, 0.000, 0.000, 0.000, 11:01:46.020, 1561474906020
149, -32689.69, 0.00, 0.00, 0.00, 0.00, 0.00, 0.00, 0.00, 0.000, 0.000, 0.000, 11:01:46.020, 1561474906020
150, -33887.39, 0.00, 0.00, 0.00, 0.00, 0.00, 0.00, 0.00, 0.000, 0.000, 0.000, 11:01:46.020, 1561474906020
151, -34479.33, 0.00, 0.00, 0.00, 0.00, 0.00, 0.00, 0.00, 0.000, 0.000, 0.000, 11:01:46.020, 1561474906020
152, -33371.40, 0.00, 0.00, 0.00, 0.00, 0.00, 0.00, 0.00, 0.000, 0.000, 0.000, 11:01:46.020, 1561474906020
153, -32689.85, 0.00, 0.00, 0.00, 0.00, 0.00, 0.00, 0.00, 0.000, 0.000, 0.000, 11:01:46.020, 1561474906020
154, -33740.20, 0.00, 0.00, 0.00, 0.00, 0.00, 0.00, 0.00, 0.000, 0.000, 0.000, 11:01:46.020, 1561474906020
155, -34538.45, 0.00, 0.00, 0.00, 0.00, 0.00, 0.00, 0.00, 0.000, 0.000, 0.000, 11:01:46.020, 1561474906020
156, -33570.40, 0.00, 0.00, 0.00, 0.00, 0.00, 0.00, 0.00, 0.000, 0.000, 0.000, 11:01:46.020, 1561474906020
157, -32640.45, 0.00, 0.00, 0.00, 0.00, 0.00, 0.00, 0.00, 0.064, -0.030, 1.034, 11:01:46.020, 1561474906020
158, -33481.50, 0.00, 0.00, 0.00, 0.00, 0.00, 0.00, 0.00, 0.000, 0.000, 0.000, 11:01:46.021, 1561474906021
159, -34512.70, 0.00, 0.00, 0.00, 0.00, 0.00, 0.00, 0.00, 0.000, 0.000, 0.000, 11:01:46.021, 1561474906021
160, -33798.05, 0.00, 0.00, 0.00, 0.00, 0.00, 0.00, 0.00, 0.000, 0.000, 0.000, 11:01:46.021, 1561474906021
161, -32666.45, 0.00, 0.00, 0.00, 0.00, 0.00, 0.00, 0.00, 0.000, 0.000, 0.000, 11:01:46.021, 1561474906021
162, -33218.42, 0.00, 0.00, 0.00, 0.00, 0.00, 0.00, 0.00, 0.000, 0.000, 0.000, 11:01:46.021, 1561474906021
163, -34416.19, 0.00, 0.00, 0.00, 0.00, 0.00, 0.00, 0.00, 0.000, 0.000, 0.000, 11:01:46.021, 1561474906021
164, -34006.41, 0.00, 0.00, 0.00, 0.00, 0.00, 0.00, 0.00, 0.000, 0.000, 0.000, 11:01:46.021, 1561474906021
165, -32759.03, 0.00, 0.00, 0.00, 0.00, 0.00, 0.00, 0.00, 0.000, 0.000, 0.000, 11:01:46.021, 1561474906021
166, -33013.01, 0.00, 0.00, 0.00, 0.00, 0.00, 0.00, 0.00, 0.000, 0.000, 0.000, 11:01:46.021, 1561474906021
167, -34286.26, 0.00, 0.00, 0.00, 0.00, 0.00, 0.00, 0.00, 0.056, -0.028, 1.030, 11:01:46.021, 1561474906021
168, -34188.87, 0.00, 0.00, 0.00, 0.00, 0.00, 0.00, 0.00, 0.000, 0.000, 0.000, 11:01:46.021, 1561474906021
169, -32893.47, 0.00, 0.00, 0.00, 0.00, 0.00, 0.00, 0.00, 0.000, 0.000, 0.000, 11:01:46.021, 1561474906021
170, -32807.04, 0.00, 0.00, 0.00, 0.00, 0.00, 0.00, 0.00, 0.000, 0.000, 0.000, 11:01:46.021, 1561474906021
171, -34076.04, 0.00, 0.00, 0.00, 0.00, 0.00, 0.00, 0.00, 0.000, 0.000, 0.000, 11:01:46.021, 1561474906021
172, -34306.73, 0.00, 0.00, 0.00, 0.00, 0.00, 0.00, 0.00, 0.000, 0.000, 0.000, 11:01:46.021, 1561474906021
173, -33055.19, 0.00, 0.00, 0.00, 0.00, 0.00, 0.00, 0.00, 0.000, 0.000, 0.000, 11:01:46.021, 1561474906021
174, -32691.35, 0.00, 0.00, 0.00, 0.00, 0.00, 0.00, 0.00, 0.000, 0.000, 0.000, 11:01:46.021, 1561474906021
175, -33924.00, 0.00, 0.00, 0.00, 0.00, 0.00, 0.00, 0.00, 0.000, 0.000, 0.000, 11:01:46.021, 1561474906021
176, -34476.83, 0.00, 0.00, 0.00, 0.00, 0.00, 0.00, 0.00, 0.000, 0.000, 0.000, 11:01:46.021, 1561474906021
177, -33339.04, 0.00, 0.00, 0.00, 0.00, 0.00, 0.00, 0.00, 0.058, -0.032, 1.034, 11:01:46.023, 1561474906023
178, -32624.58, 0.00, 0.00, 0.00, 0.00, 0.00, 0.00, 0.00, 0.000, 0.000, 0.000, 11:01:46.023, 1561474906023
179, -33670.36, 0.00, 0.00, 0.00, 0.00, 0.00, 0.00, 0.00, 0.000, 0.000, 0.000, 11:01:46.023, 1561474906023
180, -34514.91, 0.00, 0.00, 0.00, 0.00, 0.00, 0.00, 0.00, 0.000, 0.000, 0.000, 11:01:46.023, 1561474906023
181, -33560.63, 0.00, 0.00, 0.00, 0.00, 0.00, 0.00, 0.00, 0.000, 0.000, 0.000, 11:01:46.023, 1561474906023
182, -32594.56, 0.00, 0.00, 0.00, 0.00, 0.00, 0.00, 0.00, 0.000, 0.000, 0.000, 11:01:46.023, 1561474906023
183, -33407.27, 0.00, 0.00, 0.00, 0.00, 0.00, 0.00, 0.00, 0.000, 0.000, 0.000, 11:01:46.023, 1561474906023
184, -34460.98, 0.00, 0.00, 0.00, 0.00, 0.00, 0.00, 0.00, 0.000, 0.000, 0.000, 11:01:46.024, 1561474906024
185, -33757.21, 0.00, 0.00, 0.00, 0.00, 0.00, 0.00, 0.00, 0.000, 0.000, 0.000, 11:01:46.024, 1561474906024
186, -32616.25, 0.00, 0.00, 0.00, 0.00, 0.00, 0.00, 0.00, 0.000, 0.000, 0.000, 11:01:46.024, 1561474906024
187, -33175.84, 0.00, 0.00, 0.00, 0.00, 0.00, 0.00, 0.00, 0.062, -0.038, 1.036, 11:01:46.024, 1561474906024
188, -34392.11, 0.00, 0.00, 0.00, 0.00, 0.00, 0.00, 0.00, 0.000, 0.000, 0.000, 11:01:46.024, 1561474906024
189, -33993.76, 0.00, 0.00, 0.00, 0.00, 0.00, 0.00, 0.00, 0.000, 0.000, 0.000, 11:01:46.025, 1561474906025
190, -32725.10, 0.00, 0.00, 0.00, 0.00, 0.00, 0.00, 0.00, 0.000, 0.000, 0.000, 11:01:46.025, 1561474906025
191, -32969.98, 0.00, 0.00, 0.00, 0.00, 0.00, 0.00, 0.00, 0.000, 0.000, 0.000, 11:01:46.025, 1561474906025
192, -34252.24, 0.00, 0.00, 0.00, 0.00, 0.00, 0.00, 0.00, 0.000, 0.000, 0.000, 11:01:46.025, 1561474906025
193, -34161.94, 0.00, 0.00, 0.00, 0.00, 0.00, 0.00, 0.00, 0.000, 0.000, 0.000, 11:01:46.025, 1561474906025
194, -32887.30, 0.00, 0.00, 0.00, 0.00, 0.00, 0.00, 0.00, 0.000, 0.000, 0.000, 11:01:46.025, 1561474906025
195, -32829.05, 0.00, 0.00, 0.00, 0.00, 0.00, 0.00, 0.00, 0.000, 0.000, 0.000, 11:01:46.025, 1561474906025
196, -34100.54, 0.00, 0.00, 0.00, 0.00, 0.00, 0.00, 0.00, 0.000, 0.000, 0.000, 11:01:46.025, 1561474906025
197, -34338.05, 0.00, 0.00, 0.00, 0.00, 0.00, 0.00, 0.00, 0.064, -0.028, 1.030, 11:01:46.025, 1561474906025
198, -33083.62, 0.00, 0.00, 0.00, 0.00, 0.00, 0.00, 0.00, 0.000, 0.000, 0.000, 11:01:46.026, 1561474906026
199, -32662.13, 0.00, 0.00, 0.00, 0.00, 0.00, 0.00, 0.00, 0.000, 0.000, 0.000, 11:01:46.026, 1561474906026
200, -33859.96, 0.00, 0.00, 0.00, 0.00, 0.00, 0.00, 0.00, 0.000, 0.000, 0.000, 11:01:46.026, 1561474906026
201, -34439.48, 0.00, 0.00, 0.00, 0.00, 0.00, 0.00, 0.00, 0.000, 0.000, 0.000, 11:01:46.026, 1561474906026
202, -33295.34, 0.00, 0.00, 0.00, 0.00, 0.00, 0.00, 0.00, 0.000, 0.000, 0.000, 11:01:46.026, 1561474906026
203, -32572.17, 0.00, 0.00, 0.00, 0.00, 0.00, 0.00, 0.00, 0.000, 0.000, 0.000, 11:01:46.026, 1561474906026
204, -33627.80, 0.00, 0.00, 0.00, 0.00, 0.00, 0.00, 0.00, 0.000, 0.000, 0.000, 11:01:46.026, 1561474906026
205, -34462.25, 0.00, 0.00, 0.00, 0.00, 0.00, 0.00, 0.00, 0.000, 0.000, 0.000, 11:01:46.026, 1561474906026
206, -33545.61, 0.00, 0.00, 0.00, 0.00, 0.00, 0.00, 0.00, 0.000, 0.000, 0.000, 11:01:46.026, 1561474906026
207, -32577.40, 0.00, 0.00, 0.00, 0.00, 0.00, 0.00, 0.00, 0.000, 0.000, 0.000, 11:01:46.026, 1561474906026
208, -33416.21, 0.00, 0.00, 0.00, 0.00, 0.00, 0.00, 0.00, 0.066, -0.028, 1.024, 11:01:46.026, 1561474906026
209, -34467.39, 0.00, 0.00, 0.00, 0.00, 0.00, 0.00, 0.00, 0.000, 0.000, 0.000, 11:01:46.496, 1561474906496
210, -33763.52, 0.00, 0.00, 0.00, 0.00, 0.00, 0.00, 0.00, 0.000, 0.000, 0.000, 11:01:46.496, 1561474906496
211, -32648.43, 0.00, 0.00, 0.00, 0.00, 0.00, 0.00, 0.00, 0.000, 0.000, 0.000, 11:01:46.496, 1561474906496
212, -33209.82, 0.00, 0.00, 0.00, 0.00, 0.00, 0.00, 0.00, 0.000, 0.000, 0.000, 11:01:46.496, 1561474906496
213, -34410.29, 0.00, 0.00, 0.00, 0.00, 0.00, 0.00, 0.00, 0.000, 0.000, 0.000, 11:01:46.496, 1561474906496
214, -33999.44, 0.00, 0.00, 0.00, 0.00, 0.00, 0.00, 0.00, 0.000, 0.000, 0.000, 11:01:46.496, 1561474906496
215, -32735.45, 0.00, 0.00, 0.00, 0.00, 0.00, 0.00, 0.00, 0.000, 0.000, 0.000, 11:01:46.496, 1561474906496
216, -32990.44, 0.00, 0.00, 0.00, 0.00, 0.00, 0.00, 0.00, 0.000, 0.000, 0.000, 11:01:46.497, 1561474906497
217, -34264.26, 0.00, 0.00, 0.00, 0.00, 0.00, 0.00, 0.00, 0.000, 0.000, 0.000, 11:01:46.497, 1561474906497
218, -34167.75, 0.00, 0.00, 0.00, 0.00, 0.00, 0.00, 0.00, 0.072, -0.032, 1.034, 11:01:46.497, 1561474906497
219, -32879.41, 0.00, 0.00, 0.00, 0.00, 0.00, 0.00, 0.00, 0.000, 0.000, 0.000, 11:01:46.497, 1561474906497
220, -32814.39, 0.00, 0.00, 0.00, 0.00, 0.00, 0.00, 0.00, 0.000, 0.000, 0.000, 11:01:46.497, 1561474906497
221, -34100.67, 0.00, 0.00, 0.00, 0.00, 0.00, 0.00, 0.00, 0.000, 0.000, 0.000, 11:01:46.498, 1561474906498
222, -34353.36, 0.00, 0.00, 0.00, 0.00, 0.00, 0.00, 0.00, 0.000, 0.000, 0.000, 11:01:46.498, 1561474906498
223, -33102.57, 0.00, 0.00, 0.00, 0.00, 0.00, 0.00, 0.00, 0.000, 0.000, 0.000, 11:01:46.498, 1561474906498
224, -32665.64, 0.00, 0.00, 0.00, 0.00, 0.00, 0.00, 0.00, 0.000, 0.000, 0.000, 11:01:46.498, 1561474906498
225, -33849.79, 0.00, 0.00, 0.00, 0.00, 0.00, 0.00, 0.00, 0.000, 0.000, 0.000, 11:01:46.498, 1561474906498
226, -34431.77, 0.00, 0.00, 0.00, 0.00, 0.00, 0.00, 0.00, 0.000, 0.000, 0.000, 11:01:46.498, 1561474906498
227, -33305.73, 0.00, 0.00, 0.00, 0.00, 0.00, 0.00, 0.00, 0.000, 0.000, 0.000, 11:01:46.498, 1561474906498
228, -32615.71, 0.00, 0.00, 0.00, 0.00, 0.00, 0.00, 0.00, 0.064, -0.034, 1.038, 11:01:46.499, 1561474906499
229, -33680.41, 0.00, 0.00, 0.00, 0.00, 0.00, 0.00, 0.00, 0.000, 0.000, 0.000, 11:01:46.499, 1561474906499
230, -34503.49, 0.00, 0.00, 0.00, 0.00, 0.00, 0.00, 0.00, 0.000, 0.000, 0.000, 11:01:46.499, 1561474906499
231, -33540.11, 0.00, 0.00, 0.00, 0.00, 0.00, 0.00, 0.00, 0.000, 0.000, 0.000, 11:01:46.499, 1561474906499
232, -32583.77, 0.00, 0.00, 0.00, 0.00, 0.00, 0.00, 0.00, 0.000, 0.000, 0.000, 11:01:46.499, 1561474906499
233, -33433.85, 0.00, 0.00, 0.00, 0.00, 0.00, 0.00, 0.00, 0.000, 0.000, 0.000, 11:01:46.499, 1561474906499
234, -34482.62, 0.00, 0.00, 0.00, 0.00, 0.00, 0.00, 0.00, 0.000, 0.000, 0.000, 11:01:46.499, 1561474906499
235, -33751.60, 0.00, 0.00, 0.00, 0.00, 0.00, 0.00, 0.00, 0.000, 0.000, 0.000, 11:01:46.499, 1561474906499
236, -32612.98, 0.00, 0.00, 0.00, 0.00, 0.00, 0.00, 0.00, 0.000, 0.000, 0.000, 11:01:46.499, 1561474906499
237, -33209.64, 0.00, 0.00, 0.00, 0.00, 0.00, 0.00, 0.00, 0.000, 0.000, 0.000, 11:01:46.499, 1561474906499
238, -34421.37, 0.00, 0.00, 0.00, 0.00, 0.00, 0.00, 0.00, 0.064, -0.030, 1.026, 11:01:46.499, 1561474906499
239, -33991.05, 0.00, 0.00, 0.00, 0.00, 0.00, 0.00, 0.00, 0.000, 0.000, 0.000, 11:01:46.499, 1561474906499
240, -32738.96, 0.00, 0.00, 0.00, 0.00, 0.00, 0.00, 0.00, 0.000, 0.000, 0.000, 11:01:46.499, 1561474906499
241, -32974.88, 0.00, 0.00, 0.00, 0.00, 0.00, 0.00, 0.00, 0.000, 0.000, 0.000, 11:01:46.500, 1561474906500
242, -34246.20, 0.00, 0.00, 0.00, 0.00, 0.00, 0.00, 0.00, 0.000, 0.000, 0.000, 11:01:46.500, 1561474906500
243, -34189.32, 0.00, 0.00, 0.00, 0.00, 0.00, 0.00, 0.00, 0.000, 0.000, 0.000, 11:01:46.500, 1561474906500
244, -32898.91, 0.00, 0.00, 0.00, 0.00, 0.00, 0.00, 0.00, 0.000, 0.000, 0.000, 11:01:46.500, 1561474906500
245, -32816.63, 0.00, 0.00, 0.00, 0.00, 0.00, 0.00, 0.00, 0.000, 0.000, 0.000, 11:01:46.500, 1561474906500
246, -34091.24, 0.00, 0.00, 0.00, 0.00, 0.00, 0.00, 0.00, 0.000, 0.000, 0.000, 11:01:46.500, 1561474906500
247, -34330.94, 0.00, 0.00, 0.00, 0.00, 0.00, 0.00, 0.00, 0.000, 0.000, 0.000, 11:01:46.500, 1561474906500
248, -33088.09, 0.00, 0.00, 0.00, 0.00, 0.00, 0.00, 0.00, 0.060, -0.024, 1.026, 11:01:46.500, 1561474906500
249, -32714.53, 0.00, 0.00, 0.00, 0.00, 0.00, 0.00, 0.00, 0.000, 0.000, 0.000, 11:01:46.500, 1561474906500
250, -33933.10, 0.00, 0.00, 0.00, 0.00, 0.00, 0.00, 0.00, 0.000, 0.000, 0.000, 11:01:46.500, 1561474906500
251, -34489.61, 0.00, 0.00, 0.00, 0.00, 0.00, 0.00, 0.00, 0.000, 0.000, 0.000, 11:01:46.501, 1561474906501
252, -33322.09, 0.00, 0.00, 0.00, 0.00, 0.00, 0.00, 0.00, 0.000, 0.000, 0.000, 11:01:46.501, 1561474906501
253, -32617.94, 0.00, 0.00, 0.00, 0.00, 0.00, 0.00, 0.00, 0.000, 0.000, 0.000, 11:01:46.501, 1561474906501
254, -33692.10, 0.00, 0.00, 0.00, 0.00, 0.00, 0.00, 0.00, 0.000, 0.000, 0.000, 11:01:46.501, 1561474906501
255, -34516.37, 0.00, 0.00, 0.00, 0.00, 0.00, 0.00, 0.00, 0.000, 0.000, 0.000, 11:01:46.501, 1561474906501
0, -33553.97, 0.00, 0.00, 0.00, 0.00, 0.00, 0.00, 0.00, 0.000, 0.000, 0.000, 11:01:46.501, 1561474906501
1, -32599.50, 0.00, 0.00, 0.00, 0.00, 0.00, 0.00, 0.00, 0.000, 0.000, 0.000, 11:01:46.501, 1561474906501
2, -33446.72, 0.00, 0.00, 0.00, 0.00, 0.00, 0.00, 0.00, 0.060, -0.024, 1.024, 11:01:46.501, 1561474906501
3, -34488.98, 0.00, 0.00, 0.00, 0.00, 0.00, 0.00, 0.00, 0.000, 0.000, 0.000, 11:01:46.501, 1561474906501
4, -33791.84, 0.00, 0.00, 0.00, 0.00, 0.00, 0.00, 0.00, 0.000, 0.000, 0.000, 11:01:46.501, 1561474906501
5, -32656.10, 0.00, 0.00, 0.00, 0.00, 0.00, 0.00, 0.00, 0.000, 0.000, 0.000, 11:01:46.501, 1561474906501
6, -33222.71, 0.00, 0.00, 0.00, 0.00, 0.00, 0.00, 0.00, 0.000, 0.000, 0.000, 11:01:46.501, 1561474906501
7, -34438.20, 0.00, 0.00, 0.00, 0.00, 0.00, 0.00, 0.00, 0.000, 0.000, 0.000, 11:01:46.501, 1561474906501
8, -34037.44, 0.00, 0.00, 0.00, 0.00, 0.00, 0.00, 0.00, 0.000, 0.000, 0.000, 11:01:46.501, 1561474906501
9, -32796.33, 0.00, 0.00, 0.00, 0.00, 0.00, 0.00, 0.00, 0.000, 0.000, 0.000, 11:01:46.501, 1561474906501
10, -33052.44, 0.00, 0.00, 0.00, 0.00, 0.00, 0.00, 0.00, 0.000, 0.000, 0.000, 11:01:46.501, 1561474906501
11, -34330.85, 0.00, 0.00, 0.00, 0.00, 0.00, 0.00, 0.00, 0.000, 0.000, 0.000, 11:01:46.502, 1561474906502
12, -34238.42, 0.00, 0.00, 0.00, 0.00, 0.00, 0.00, 0.00, 0.000, 0.000, 0.000, 11:01:46.502, 1561474906502
13, -32947.90, 0.00, 0.00, 0.00, 0.00, 0.00, 0.00, 0.00, 0.062, -0.030, 1.032, 11:01:46.502, 1561474906502
14, -32865.69, 0.00, 0.00, 0.00, 0.00, 0.00, 0.00, 0.00, 0.000, 0.000, 0.000, 11:01:46.502, 1561474906502
15, -34129.68, 0.00, 0.00, 0.00, 0.00, 0.00, 0.00, 0.00, 0.000, 0.000, 0.000, 11:01:46.502, 1561474906502
16, -34380.02, 0.00, 0.00, 0.00, 0.00, 0.00, 0.00, 0.00, 0.000, 0.000, 0.000, 11:01:46.502, 1561474906502
17, -33128.73, 0.00, 0.00, 0.00, 0.00, 0.00, 0.00, 0.00, 0.000, 0.000, 0.000, 11:01:46.502, 1561474906502
18, -32724.99, 0.00, 0.00, 0.00, 0.00, 0.00, 0.00, 0.00, 0.000, 0.000, 0.000, 11:01:46.502, 1561474906502
19, -33939.60, 0.00, 0.00, 0.00, 0.00, 0.00, 0.00, 0.00, 0.000, 0.000, 0.000, 11:01:46.503, 1561474906503
20, -34505.64, 0.00, 0.00, 0.00, 0.00, 0.00, 0.00, 0.00, 0.000, 0.000, 0.000, 11:01:46.503, 1561474906503
21, -33368.29, 0.00, 0.00, 0.00, 0.00, 0.00, 0.00, 0.00, 0.000, 0.000, 0.000, 11:01:46.503, 1561474906503
22, -32678.49, 0.00, 0.00, 0.00, 0.00, 0.00, 0.00, 0.00, 0.000, 0.000, 0.000, 11:01:46.503, 1561474906503
23, -33729.61, 0.00, 0.00, 0.00, 0.00, 0.00, 0.00, 0.00, 0.064, -0.026, 1.028, 11:01:46.503, 1561474906503
24, -34533.33, 0.00, 0.00, 0.00, 0.00, 0.00, 0.00, 0.00, 0.000, 0.000, 0.000, 11:01:46.503, 1561474906503
25, -33576.27, 0.00, 0.00, 0.00, 0.00, 0.00, 0.00, 0.00, 0.000, 0.000, 0.000, 11:01:46.503, 1561474906503
26, -32636.81, 0.00, 0.00, 0.00, 0.00, 0.00, 0.00, 0.00, 0.000, 0.000, 0.000, 11:01:46.503, 1561474906503
27, -33486.85, 0.00, 0.00, 0.00, 0.00, 0.00, 0.00, 0.00, 0.000, 0.000, 0.000, 11:01:46.503, 1561474906503
28, -34553.88, 0.00, 0.00, 0.00, 0.00, 0.00, 0.00, 0.00, 0.000, 0.000, 0.000, 11:01:46.503, 1561474906503
29, -33844.63, 0.00, 0.00, 0.00, 0.00, 0.00, 0.00, 0.00, 0.000, 0.000, 0.000, 11:01:46.503, 1561474906503
30, -32724.99, 0.00, 0.00, 0.00, 0.00, 0.00, 0.00, 0.00, 0.000, 0.000, 0.000, 11:01:46.503, 1561474906503
31, -33298.55, 0.00, 0.00, 0.00, 0.00, 0.00, 0.00, 0.00, 0.000, 0.000, 0.000, 11:01:46.503, 1561474906503
32, -34499.04, 0.00, 0.00, 0.00, 0.00, 0.00, 0.00, 0.00, 0.000, 0.000, 0.000, 11:01:46.503, 1561474906503
33, -34078.96, 0.00, 0.00, 0.00, 0.00, 0.00, 0.00, 0.00, 0.066, -0.026, 1.032, 11:01:46.503, 1561474906503
34, -32829.86, 0.00, 0.00, 0.00, 0.00, 0.00, 0.00, 0.00, 0.000, 0.000, 0.000, 11:01:46.503, 1561474906503
35, -33097.50, 0.00, 0.00, 0.00, 0.00, 0.00, 0.00, 0.00, 0.000, 0.000, 0.000, 11:01:46.503, 1561474906503
36, -34376.24, 0.00, 0.00, 0.00, 0.00, 0.00, 0.00, 0.00, 0.000, 0.000, 0.000, 11:01:46.503, 1561474906503
37, -34256.82, 0.00, 0.00, 0.00, 0.00, 0.00, 0.00, 0.00, 0.000, 0.000, 0.000, 11:01:46.503, 1561474906503
38, -32973.02, 0.00, 0.00, 0.00, 0.00, 0.00, 0.00, 0.00, 0.000, 0.000, 0.000, 11:01:46.503, 1561474906503
39, -32900.29, 0.00, 0.00, 0.00, 0.00, 0.00, 0.00, 0.00, 0.000, 0.000, 0.000, 11:01:46.503, 1561474906503
40, -34182.10, 0.00, 0.00, 0.00, 0.00, 0.00, 0.00, 0.00, 0.000, 0.000, 0.000, 11:01:46.503, 1561474906503
41, -34411.05, 0.00, 0.00, 0.00, 0.00, 0.00, 0.00, 0.00, 0.000, 0.000, 0.000, 11:01:46.504, 1561474906504
42, -33187.18, 0.00, 0.00, 0.00, 0.00, 0.00, 0.00, 0.00, 0.000, 0.000, 0.000, 11:01:46.504, 1561474906504
43, -32781.00, 0.00, 0.00, 0.00, 0.00, 0.00, 0.00, 0.00, 0.066, -0.022, 1.028, 11:01:46.504, 1561474906504
44, -33984.62, 0.00, 0.00, 0.00, 0.00, 0.00, 0.00, 0.00, 0.000, 0.000, 0.000, 11:01:46.504, 1561474906504
45, -34546.30, 0.00, 0.00, 0.00, 0.00, 0.00, 0.00, 0.00, 0.000, 0.000, 0.000, 11:01:46.504, 1561474906504
46, -33409.15, 0.00, 0.00, 0.00, 0.00, 0.00, 0.00, 0.00, 0.000, 0.000, 0.000, 11:01:46.504, 1561474906504
47, -32725.28, 0.00, 0.00, 0.00, 0.00, 0.00, 0.00, 0.00, 0.000, 0.000, 0.000, 11:01:46.504, 1561474906504
48, -33804.57, 0.00, 0.00, 0.00, 0.00, 0.00, 0.00, 0.00, 0.000, 0.000, 0.000, 11:01:46.504, 1561474906504
49, -34606.91, 0.00, 0.00, 0.00, 0.00, 0.00, 0.00, 0.00, 0.000, 0.000, 0.000, 11:01:46.504, 1561474906504
50, -33623.01, 0.00, 0.00, 0.00, 0.00, 0.00, 0.00, 0.00, 0.000, 0.000, 0.000, 11:01:46.504, 1561474906504
51, -32668.21, 0.00, 0.00, 0.00, 0.00, 0.00, 0.00, 0.00, 0.000, 0.000, 0.000, 11:01:46.504, 1561474906504
52, -33538.43, 0.00, 0.00, 0.00, 0.00, 0.00, 0.00, 0.00, 0.000, 0.000, 0.000, 11:01:46.504, 1561474906504
53, -34599.63, 0.00, 0.00, 0.00, 0.00, 0.00, 0.00, 0.00, 0.068, -0.028, 1.026, 11:01:46.504, 1561474906504
54, -33877.35, 0.00, 0.00, 0.00, 0.00, 0.00, 0.00, 0.00, 0.000, 0.000, 0.000, 11:01:46.504, 1561474906504
55, -32745.39, 0.00, 0.00, 0.00, 0.00, 0.00, 0.00, 0.00, 0.000, 0.000, 0.000, 11:01:46.504, 1561474906504
56, -33293.19, 0.00, 0.00, 0.00, 0.00, 0.00, 0.00, 0.00, 0.000, 0.000, 0.000, 11:01:46.504, 1561474906504
57, -34481.90, 0.00, 0.00, 0.00, 0.00, 0.00, 0.00, 0.00, 0.000, 0.000, 0.000, 11:01:46.504, 1561474906504
58, -34071.93, 0.00, 0.00, 0.00, 0.00, 0.00, 0.00, 0.00, 0.000, 0.000, 0.000, 11:01:46.504, 1561474906504
59, -32848.73, 0.00, 0.00, 0.00, 0.00, 0.00, 0.00, 0.00, 0.000, 0.000, 0.000, 11:01:46.504, 1561474906504
60, -33139.43, 0.00, 0.00, 0.00, 0.00, 0.00, 0.00, 0.00, 0.000, 0.000, 0.000, 11:01:46.504, 1561474906504
61, -34405.23, 0.00, 0.00, 0.00, 0.00, 0.00, 0.00, 0.00, 0.000, 0.000, 0.000, 11:01:46.504, 1561474906504
62, -34312.50, 0.00, 0.00, 0.00, 0.00, 0.00, 0.00, 0.00, 0.000, 0.000, 0.000, 11:01:46.504, 1561474906504
63, -33028.37, 0.00, 0.00, 0.00, 0.00, 0.00, 0.00, 0.00, 0.000, 0.000, 0.000, 11:01:46.505, 1561474906505
64, -32955.01, 0.00, 0.00, 0.00, 0.00, 0.00, 0.00, 0.00, 0.066, -0.028, 1.024, 11:01:46.505, 1561474906505
65, -34228.88, 0.00, 0.00, 0.00, 0.00, 0.00, 0.00, 0.00, 0.000, 0.000, 0.000, 11:01:46.505, 1561474906505
66, -34472.91, 0.00, 0.00, 0.00, 0.00, 0.00, 0.00, 0.00, 0.000, 0.000, 0.000, 11:01:46.505, 1561474906505
67, -33226.71, 0.00, 0.00, 0.00, 0.00, 0.00, 0.00, 0.00, 0.000, 0.000, 0.000, 11:01:46.505, 1561474906505
68, -32822.17, 0.00, 0.00, 0.00, 0.00, 0.00, 0.00, 0.00, 0.000, 0.000, 0.000, 11:01:46.505, 1561474906505
69, -34040.68, 0.00, 0.00, 0.00, 0.00, 0.00, 0.00, 0.00, 0.000, 0.000, 0.000, 11:01:46.505, 1561474906505
70, -34591.13, 0.00, 0.00, 0.00, 0.00, 0.00, 0.00, 0.00, 0.000, 0.000, 0.000, 11:01:46.505, 1561474906505
71, -33437.98, 0.00, 0.00, 0.00, 0.00, 0.00, 0.00, 0.00, 0.000, 0.000, 0.000, 11:01:46.505, 1561474906505
72, -32752.08, 0.00, 0.00, 0.00, 0.00, 0.00, 0.00, 0.00, 0.000, 0.000, 0.000, 11:01:46.507, 1561474906507
73, -33801.96, 0.00, 0.00, 0.00, 0.00, 0.00, 0.00, 0.00, 0.000, 0.000, 0.000, 11:01:46.977, 1561474906977
74, -34623.79, 0.00, 0.00, 0.00, 0.00, 0.00, 0.00, 0.00, 0.062, -0.032, 1.030, 11:01:46.977, 1561474906977
75, -33681.62, 0.00, 0.00, 0.00, 0.00, 0.00, 0.00, 0.00, 0.000, 0.000, 0.000, 11:01:46.978, 1561474906978
76, -32756.50, 0.00, 0.00, 0.00, 0.00, 0.00, 0.00, 0.00, 0.000, 0.000, 0.000, 11:01:46.978, 1561474906978
77, -33596.70, 0.00, 0.00, 0.00, 0.00, 0.00, 0.00, 0.00, 0.000, 0.000, 0.000, 11:01:46.978, 1561474906978
78, -34629.89, 0.00, 0.00, 0.00, 0.00, 0.00, 0.00, 0.00, 0.000, 0.000, 0.000, 11:01:46.978, 1561474906978
79, -33914.28, 0.00, 0.00, 0.00, 0.00, 0.00, 0.00, 0.00, 0.000, 0.000, 0.000, 11:01:46.978, 1561474906978
80, -32772.66, 0.00, 0.00, 0.00, 0.00, 0.00, 0.00, 0.00, 0.000, 0.000, 0.000, 11:01:46.978, 1561474906978
81, -33356.20, 0.00, 0.00, 0.00, 0.00, 0.00, 0.00, 0.00, 0.000, 0.000, 0.000, 11:01:46.978, 1561474906978
82, -34570.91, 0.00, 0.00, 0.00, 0.00, 0.00, 0.00, 0.00, 0.000, 0.000, 0.000, 11:01:46.978, 1561474906978
83, -34142.51, 0.00, 0.00, 0.00, 0.00, 0.00, 0.00, 0.00, 0.000, 0.000, 0.000, 11:01:46.979, 1561474906979
84, -32892.16, 0.00, 0.00, 0.00, 0.00, 0.00, 0.00, 0.00, 0.056, -0.028, 1.038, 11:01:46.979, 1561474906979
85, -33182.21, 0.00, 0.00, 0.00, 0.00, 0.00, 0.00, 0.00, 0.000, 0.000, 0.000, 11:01:46.979, 1561474906979
86, -34455.95, 0.00, 0.00, 0.00, 0.00, 0.00, 0.00, 0.00, 0.000, 0.000, 0.000, 11:01:46.979, 1561474906979
87, -34340.55, 0.00, 0.00, 0.00, 0.00, 0.00, 0.00, 0.00, 0.000, 0.000, 0.000, 11:01:46.979, 1561474906979
88, -33043.84, 0.00, 0.00, 0.00, 0.00, 0.00, 0.00, 0.00, 0.000, 0.000, 0.000, 11:01:46.979, 1561474906979
89, -32957.13, 0.00, 0.00, 0.00, 0.00, 0.00, 0.00, 0.00, 0.000, 0.000, 0.000, 11:01:46.979, 1561474906979
90, -34232.84, 0.00, 0.00, 0.00, 0.00, 0.00, 0.00, 0.00, 0.000, 0.000, 0.000, 11:01:46.979, 1561474906979
91, -34476.00, 0.00, 0.00, 0.00, 0.00, 0.00, 0.00, 0.00, 0.000, 0.000, 0.000, 11:01:46.979, 1561474906979
92, -33249.83, 0.00, 0.00, 0.00, 0.00, 0.00, 0.00, 0.00, 0.000, 0.000, 0.000, 11:01:46.979, 1561474906979
93, -32868.84, 0.00, 0.00, 0.00, 0.00, 0.00, 0.00, 0.00, 0.000, 0.000, 0.000, 11:01:46.979, 1561474906979
94, -34092.80, 0.00, 0.00, 0.00, 0.00, 0.00, 0.00, 0.00, 0.064, -0.026, 1.034, 11:01:46.979, 1561474906979
95, -34617.40, 0.00, 0.00, 0.00, 0.00, 0.00, 0.00, 0.00, 0.000, 0.000, 0.000, 11:01:46.979, 1561474906979
96, -33458.70, 0.00, 0.00, 0.00, 0.00, 0.00, 0.00, 0.00, 0.000, 0.000, 0.000, 11:01:46.979, 1561474906979
97, -32776.15, 0.00, 0.00, 0.00, 0.00, 0.00, 0.00, 0.00, 0.000, 0.000, 0.000, 11:01:46.979, 1561474906979
98, -33836.79, 0.00, 0.00, 0.00, 0.00, 0.00, 0.00, 0.00, 0.000, 0.000, 0.000, 11:01:46.979, 1561474906979
99, -34673.14, 0.00, 0.00, 0.00, 0.00, 0.00, 0.00, 0.00, 0.000, 0.000, 0.000, 11:01:46.979, 1561474906979
100, -33705.74, 0.00, 0.00, 0.00, 0.00, 0.00, 0.00, 0.00, 0.000, 0.000, 0.000, 11:01:46.979, 1561474906979
101, -32767.41, 0.00, 0.00, 0.00, 0.00, 0.00, 0.00, 0.00, 0.000, 0.000, 0.000, 11:01:46.979, 1561474906979
102, -33637.79, 0.00, 0.00, 0.00, 0.00, 0.00, 0.00, 0.00, 0.000, 0.000, 0.000, 11:01:46.979, 1561474906979
103, -34668.54, 0.00, 0.00, 0.00, 0.00, 0.00, 0.00, 0.00, 0.000, 0.000, 0.000, 11:01:46.979, 1561474906979
104, -33948.75, 0.00, 0.00, 0.00, 0.00, 0.00, 0.00, 0.00, 0.064, -0.026, 1.042, 11:01:46.980, 1561474906980
105, -32837.64, 0.00, 0.00, 0.00, 0.00, 0.00, 0.00, 0.00, 0.000, 0.000, 0.000, 11:01:46.980, 1561474906980
106, -33423.03, 0.00, 0.00, 0.00, 0.00, 0.00, 0.00, 0.00, 0.000, 0.000, 0.000, 11:01:46.980, 1561474906980
107, -34613.46, 0.00, 0.00, 0.00, 0.00, 0.00, 0.00, 0.00, 0.000, 0.000, 0.000, 11:01:46.980, 1561474906980
108, -34183.73, 0.00, 0.00, 0.00, 0.00, 0.00, 0.00, 0.00, 0.000, 0.000, 0.000, 11:01:46.980, 1561474906980
109, -32930.02, 0.00, 0.00, 0.00, 0.00, 0.00, 0.00, 0.00, 0.000, 0.000, 0.000, 11:01:46.980, 1561474906980
110, -33190.71, 0.00, 0.00, 0.00, 0.00, 0.00, 0.00, 0.00, 0.000, 0.000, 0.000, 11:01:46.980, 1561474906980
111, -34465.43, 0.00, 0.00, 0.00, 0.00, 0.00, 0.00, 0.00, 0.000, 0.000, 0.000, 11:01:46.980, 1561474906980
112, -34381.59, 0.00, 0.00, 0.00, 0.00, 0.00, 0.00, 0.00, 0.000, 0.000, 0.000, 11:01:46.980, 1561474906980
113, -33106.35, 0.00, 0.00, 0.00, 0.00, 0.00, 0.00, 0.00, 0.000, 0.000, 0.000, 11:01:46.980, 1561474906980
114, -33043.59, 0.00, 0.00, 0.00, 0.00, 0.00, 0.00, 0.00, 0.068, -0.026, 1.042, 11:01:46.980, 1561474906980
115, -34321.32, 0.00, 0.00, 0.00, 0.00, 0.00, 0.00, 0.00, 0.000, 0.000, 0.000, 11:01:46.980, 1561474906980
116, -34543.61, 0.00, 0.00, 0.00, 0.00, 0.00, 0.00, 0.00, 0.000, 0.000, 0.000, 11:01:46.980, 1561474906980
117, -33295.11, 0.00, 0.00, 0.00, 0.00, 0.00, 0.00, 0.00, 0.000, 0.000, 0.000, 11:01:46.980, 1561474906980
118, -32917.99, 0.00, 0.00, 0.00, 0.00, 0.00, 0.00, 0.00, 0.000, 0.000, 0.000, 11:01:46.980, 1561474906980
119, -34136.30, 0.00, 0.00, 0.00, 0.00, 0.00, 0.00, 0.00, 0.000, 0.000, 0.000, 11:01:46.980, 1561474906980
120, -34688.61, 0.00, 0.00, 0.00, 0.00, 0.00, 0.00, 0.00, 0.000, 0.000, 0.000, 11:01:46.980, 1561474906980
121, -33549.21, 0.00, 0.00, 0.00, 0.00, 0.00, 0.00, 0.00, 0.000, 0.000, 0.000, 11:01:46.980, 1561474906980
122, -32871.50, 0.00, 0.00, 0.00, 0.00, 0.00, 0.00, 0.00, 0.000, 0.000, 0.000, 11:01:46.980, 1561474906980
123, -33905.89, 0.00, 0.00, 0.00, 0.00, 0.00, 0.00, 0.00, 0.000, 0.000, 0.000, 11:01:46.980, 1561474906980
124, -34715.21, 0.00, 0.00, 0.00, 0.00, 0.00, 0.00, 0.00, 0.000, 0.000, 0.000, 11:01:46.980, 1561474906980
125, -33749.43, 0.00, 0.00, 0.00, 0.00, 0.00, 0.00, 0.00, 0.066, -0.028, 1.036, 11:01:46.980, 1561474906980
126, -32817.79, 0.00, 0.00, 0.00, 0.00, 0.00, 0.00, 0.00, 0.000, 0.000, 0.000, 11:01:46.980, 1561474906980
127, -33697.31, 0.00, 0.00, 0.00, 0.00, 0.00, 0.00, 0.00, 0.000, 0.000, 0.000, 11:01:46.980, 1561474906980
128, -34763.15, 0.00, 0.00, 0.00, 0.00, 0.00, 0.00, 0.00, 0.000, 0.000, 0.000, 11:01:46.980, 1561474906980
129, -34023.02, 0.00, 0.00, 0.00, 0.00, 0.00, 0.00, 0.00, 0.000, 0.000, 0.000, 11:01:46.980, 1561474906980
130, -32880.40, 0.00, 0.00, 0.00, 0.00, 0.00, 0.00, 0.00, 0.000, 0.000, 0.000, 11:01:46.980, 1561474906980
131, -33456.54, 0.00, 0.00, 0.00, 0.00, 0.00, 0.00, 0.00, 0.000, 0.000, 0.000, 11:01:46.981, 1561474906981
132, -34671.09, 0.00, 0.00, 0.00, 0.00, 0.00, 0.00, 0.00, 0.000, 0.000, 0.000, 11:01:46.981, 1561474906981
133, -34249.29, 0.00, 0.00, 0.00, 0.00, 0.00, 0.00, 0.00, 0.000, 0.000, 0.000, 11:01:46.981, 1561474906981
134, -32998.39, 0.00, 0.00, 0.00, 0.00, 0.00, 0.00, 0.00, 0.000, 0.000, 0.000, 11:01:46.981, 1561474906981
135, -33262.03, 0.00, 0.00, 0.00, 0.00, 0.00, 0.00, 0.00, 0.070, -0.028, 1.034, 11:01:46.981, 1561474906981
136, -34545.22, 0.00, 0.00, 0.00, 0.00, 0.00, 0.00, 0.00, 0.000, 0.000, 0.000, 11:01:46.981, 1561474906981
137, -34451.37, 0.00, 0.00, 0.00, 0.00, 0.00, 0.00, 0.00, 0.000, 0.000, 0.000, 11:01:46.982, 1561474906982
138, -33161.63, 0.00, 0.00, 0.00, 0.00, 0.00, 0.00, 0.00, 0.000, 0.000, 0.000, 11:01:46.982, 1561474906982
139, -33092.11, 0.00, 0.00, 0.00, 0.00, 0.00, 0.00, 0.00, 0.000, 0.000, 0.000, 11:01:46.982, 1561474906982
140, -34365.85, 0.00, 0.00, 0.00, 0.00, 0.00, 0.00, 0.00, 0.000, 0.000, 0.000, 11:01:46.982, 1561474906982
141, -34589.84, 0.00, 0.00, 0.00, 0.00, 0.00, 0.00, 0.00, 0.000, 0.000, 0.000, 11:01:46.982, 1561474906982
142, -33349.81, 0.00, 0.00, 0.00, 0.00, 0.00, 0.00, 0.00, 0.000, 0.000, 0.000, 11:01:46.982, 1561474906982
143, -32986.68, 0.00, 0.00, 0.00, 0.00, 0.00, 0.00, 0.00, 0.000, 0.000, 0.000, 11:01:46.982, 1561474906982
144, -34215.76, 0.00, 0.00, 0.00, 0.00, 0.00, 0.00, 0.00, 0.000, 0.000, 0.000, 11:01:46.982, 1561474906982
145, -34753.47, 0.00, 0.00, 0.00, 0.00, 0.00, 0.00, 0.00, 0.072, -0.030, 1.038, 11:01:46.982, 1561474906982
146, -33593.38, 0.00, 0.00, 0.00, 0.00, 0.00, 0.00, 0.00, 0.000, 0.000, 0.000, 11:01:46.982, 1561474906982
147, -32893.54, 0.00, 0.00, 0.00, 0.00, 0.00, 0.00, 0.00, 0.000, 0.000, 0.000, 11:01:46.982, 1561474906982
148, -33946.84, 0.00, 0.00, 0.00, 0.00, 0.00, 0.00, 0.00, 0.000, 0.000, 0.000, 11:01:46.982, 1561474906982
149, -34764.20, 0.00, 0.00, 0.00, 0.00, 0.00, 0.00, 0.00, 0.000, 0.000, 0.000, 11:01:46.982, 1561474906982
150, -33832.40, 0.00, 0.00, 0.00, 0.00, 0.00, 0.00, 0.00, 0.000, 0.000, 0.000, 11:01:46.982, 1561474906982
151, -32894.93, 0.00, 0.00, 0.00, 0.00, 0.00, 0.00, 0.00, 0.000, 0.000, 0.000, 11:01:46.982, 1561474906982
152, -33741.79, 0.00, 0.00, 0.00, 0.00, 0.00, 0.00, 0.00, 0.000, 0.000, 0.000, 11:01:46.982, 1561474906982
153, -34777.32, 0.00, 0.00, 0.00, 0.00, 0.00, 0.00, 0.00, 0.000, 0.000, 0.000, 11:01:46.982, 1561474906982
154, -34064.97, 0.00, 0.00, 0.00, 0.00, 0.00, 0.00, 0.00, 0.000, 0.000, 0.000, 11:01:46.982, 1561474906982
155, -32950.23, 0.00, 0.00, 0.00, 0.00, 0.00, 0.00, 0.00, 0.062, -0.032, 1.034, 11:01:46.982, 1561474906982
156, -33501.35, 0.00, 0.00, 0.00, 0.00, 0.00, 0.00, 0.00, 0.000, 0.000, 0.000, 11:01:46.983, 1561474906983
157, -34694.89, 0.00, 0.00, 0.00, 0.00, 0.00, 0.00, 0.00, 0.000, 0.000, 0.000, 11:01:46.983, 1561474906983
158, -34276.55, 0.00, 0.00, 0.00, 0.00, 0.00, 0.00, 0.00, 0.000, 0.000, 0.000, 11:01:46.983, 1561474906983
159, -33022.91, 0.00, 0.00, 0.00, 0.00, 0.00, 0.00, 0.00, 0.000, 0.000, 0.000, 11:01:46.983, 1561474906983
160, -33287.94, 0.00, 0.00, 0.00, 0.00, 0.00, 0.00, 0.00, 0.000, 0.000, 0.000, 11:01:46.983, 1561474906983
161, -34559.84, 0.00, 0.00, 0.00, 0.00, 0.00, 0.00, 0.00, 0.000, 0.000, 0.000, 11:01:46.983, 1561474906983
162, -34495.09, 0.00, 0.00, 0.00, 0.00, 0.00, 0.00, 0.00, 0.000, 0.000, 0.000, 11:01:46.983, 1561474906983
163, -33193.37, 0.00, 0.00, 0.00, 0.00, 0.00, 0.00, 0.00, 0.000, 0.000, 0.000, 11:01:46.983, 1561474906983
164, -33112.70, 0.00, 0.00, 0.00, 0.00, 0.00, 0.00, 0.00, 0.000, 0.000, 0.000, 11:01:46.983, 1561474906983
165, -34390.28, 0.00, 0.00, 0.00, 0.00, 0.00, 0.00, 0.00, 0.060, -0.032, 1.040, 11:01:46.983, 1561474906983
166, -34630.38, 0.00, 0.00, 0.00, 0.00, 0.00, 0.00, 0.00, 0.000, 0.000, 0.000, 11:01:46.983, 1561474906983
167, -33383.36, 0.00, 0.00, 0.00, 0.00, 0.00, 0.00, 0.00, 0.000, 0.000, 0.000, 11:01:46.983, 1561474906983
168, -32974.03, 0.00, 0.00, 0.00, 0.00, 0.00, 0.00, 0.00, 0.000, 0.000, 0.000, 11:01:46.983, 1561474906983
169, -34210.84, 0.00, 0.00, 0.00, 0.00, 0.00, 0.00, 0.00, 0.000, 0.000, 0.000, 11:01:46.983, 1561474906983
170, -34769.30, 0.00, 0.00, 0.00, 0.00, 0.00, 0.00, 0.00, 0.000, 0.000, 0.000, 11:01:46.983, 1561474906983
171, -33647.78, 0.00, 0.00, 0.00, 0.00, 0.00, 0.00, 0.00, 0.000, 0.000, 0.000, 11:01:46.983, 1561474906983
172, -32976.06, 0.00, 0.00, 0.00, 0.00, 0.00, 0.00, 0.00, 0.000, 0.000, 0.000, 11:01:46.983, 1561474906983
173, -34035.87, 0.00, 0.00, 0.00, 0.00, 0.00, 0.00, 0.00, 0.000, 0.000, 0.000, 11:01:46.983, 1561474906983
174, -34868.83, 0.00, 0.00, 0.00, 0.00, 0.00, 0.00, 0.00, 0.000, 0.000, 0.000, 11:01:46.983, 1561474906983
175, -33884.08, 0.00, 0.00, 0.00, 0.00, 0.00, 0.00, 0.00, 0.060, -0.032, 1.036, 11:01:46.984, 1561474906984
176, -32950.29, 0.00, 0.00, 0.00, 0.00, 0.00, 0.00, 0.00, 0.000, 0.000, 0.000, 11:01:46.984, 1561474906984
177, -33795.30, 0.00, 0.00, 0.00, 0.00, 0.00, 0.00, 0.00, 0.000, 0.000, 0.000, 11:01:46.984, 1561474906984
178, -34853.01, 0.00, 0.00, 0.00, 0.00, 0.00, 0.00, 0.00, 0.000, 0.000, 0.000, 11:01:46.984, 1561474906984
179, -34127.02, 0.00, 0.00, 0.00, 0.00, 0.00, 0.00, 0.00, 0.000, 0.000, 0.000, 11:01:46.984, 1561474906984
180, -32983.04, 0.00, 0.00, 0.00, 0.00, 0.00, 0.00, 0.00, 0.000, 0.000, 0.000, 11:01:46.984, 1561474906984
181, -33584.30, 0.00, 0.00, 0.00, 0.00, 0.00, 0.00, 0.00, 0.000, 0.000, 0.000, 11:01:46.984, 1561474906984
182, -34793.46, 0.00, 0.00, 0.00, 0.00, 0.00, 0.00, 0.00, 0.000, 0.000, 0.000, 11:01:46.984, 1561474906984
183, -34356.02, 0.00, 0.00, 0.00, 0.00, 0.00, 0.00, 0.00, 0.000, 0.000, 0.000, 11:01:46.984, 1561474906984
184, -33121.35, 0.00, 0.00, 0.00, 0.00, 0.00, 0.00, 0.00, 0.000, 0.000, 0.000, 11:01:46.984, 1561474906984
185, -33372.65, 0.00, 0.00, 0.00, 0.00, 0.00, 0.00, 0.00, 0.000, 0.000, 0.000, 11:01:46.984, 1561474906984
186, -34631.93, 0.00, 0.00, 0.00, 0.00, 0.00, 0.00, 0.00, 0.064, -0.030, 1.024, 11:01:46.984, 1561474906984
187, -34534.25, 0.00, 0.00, 0.00, 0.00, 0.00, 0.00, 0.00, 0.000, 0.000, 0.000, 11:01:46.984, 1561474906984
188, -33271.00, 0.00, 0.00, 0.00, 0.00, 0.00, 0.00, 0.00, 0.000, 0.000, 0.000, 11:01:46.984, 1561474906984
189, -33203.20, 0.00, 0.00, 0.00, 0.00, 0.00, 0.00, 0.00, 0.000, 0.000, 0.000, 11:01:46.984, 1561474906984
190, -34514.11, 0.00, 0.00, 0.00, 0.00, 0.00, 0.00, 0.00, 0.000, 0.000, 0.000, 11:01:46.984, 1561474906984
191, -34741.00, 0.00, 0.00, 0.00, 0.00, 0.00, 0.00, 0.00, 0.000, 0.000, 0.000, 11:01:46.984, 1561474906984
192, -33503.52, 0.00, 0.00, 0.00, 0.00, 0.00, 0.00, 0.00, 0.000, 0.000, 0.000, 11:01:46.985, 1561474906985
193, -33115.67, 0.00, 0.00, 0.00, 0.00, 0.00, 0.00, 0.00, 0.000, 0.000, 0.000, 11:01:47.456, 1561474907456
194, -34286.79, 0.00, 0.00, 0.00, 0.00, 0.00, 0.00, 0.00, 0.000, 0.000, 0.000, 11:01:47.456, 1561474907456
195, -34868.56, 0.00, 0.00, 0.00, 0.00, 0.00, 0.00, 0.00, 0.000, 0.000, 0.000, 11:01:47.456, 1561474907456
196, -33724.94, 0.00, 0.00, 0.00, 0.00, 0.00, 0.00, 0.00, 0.064, -0.030, 1.024, 11:01:47.456, 1561474907456
197, -33009.10, 0.00, 0.00, 0.00, 0.00, 0.00, 0.00, 0.00, 0.000, 0.000, 0.000, 11:01:47.456, 1561474907456
198, -34112.11, 0.00, 0.00, 0.00, 0.00, 0.00, 0.00, 0.00, 0.000, 0.000, 0.000, 11:01:47.457, 1561474907457
199, -34932.67, 0.00, 0.00, 0.00, 0.00, 0.00, 0.00, 0.00, 0.000, 0.000, 0.000, 11:01:47.457, 1561474907457
200, -33936.34, 0.00, 0.00, 0.00, 0.00, 0.00, 0.00, 0.00, 0.000, 0.000, 0.000, 11:01:47.457, 1561474907457
201, -33004.16, 0.00, 0.00, 0.00, 0.00, 0.00, 0.00, 0.00, 0.000, 0.000, 0.000, 11:01:47.457, 1561474907457
202, -33872.57, 0.00, 0.00, 0.00, 0.00, 0.00, 0.00, 0.00, 0.000, 0.000, 0.000, 11:01:47.457, 1561474907457
203, -34894.63, 0.00, 0.00, 0.00, 0.00, 0.00, 0.00, 0.00, 0.000, 0.000, 0.000, 11:01:47.457, 1561474907457
204, -34183.59, 0.00, 0.00, 0.00, 0.00, 0.00, 0.00, 0.00, 0.000, 0.000, 0.000, 11:01:47.457, 1561474907457
205, -33074.95, 0.00, 0.00, 0.00, 0.00, 0.00, 0.00, 0.00, 0.000, 0.000, 0.000, 11:01:47.457, 1561474907457
206, -33630.16, 0.00, 0.00, 0.00, 0.00, 0.00, 0.00, 0.00, 0.064, -0.028, 1.032, 11:01:47.457, 1561474907457
207, -34819.12, 0.00, 0.00, 0.00, 0.00, 0.00, 0.00, 0.00, 0.000, 0.000, 0.000, 11:01:47.457, 1561474907457
208, -34396.85, 0.00, 0.00, 0.00, 0.00, 0.00, 0.00, 0.00, 0.000, 0.000, 0.000, 11:01:47.457, 1561474907457
209, -33175.04, 0.00, 0.00, 0.00, 0.00, 0.00, 0.00, 0.00, 0.000, 0.000, 0.000, 11:01:47.457, 1561474907457
210, -33439.97, 0.00, 0.00, 0.00, 0.00, 0.00, 0.00, 0.00, 0.000, 0.000, 0.000, 11:01:47.457, 1561474907457
211, -34720.13, 0.00, 0.00, 0.00, 0.00, 0.00, 0.00, 0.00, 0.000, 0.000, 0.000, 11:01:47.457, 1561474907457
212, -34643.01, 0.00, 0.00, 0.00, 0.00, 0.00, 0.00, 0.00, 0.000, 0.000, 0.000, 11:01:47.457, 1561474907457
213, -33331.73, 0.00, 0.00, 0.00, 0.00, 0.00, 0.00, 0.00, 0.000, 0.000, 0.000, 11:01:47.457, 1561474907457
214, -33279.89, 0.00, 0.00, 0.00, 0.00, 0.00, 0.00, 0.00, 0.000, 0.000, 0.000, 11:01:47.457, 1561474907457
215, -34563.66, 0.00, 0.00, 0.00, 0.00, 0.00, 0.00, 0.00, 0.000, 0.000, 0.000, 11:01:47.457, 1561474907457
216, -34806.98, 0.00, 0.00, 0.00, 0.00, 0.00, 0.00, 0.00, 0.062, -0.028, 1.028, 11:01:47.457, 1561474907457
217, -33547.42, 0.00, 0.00, 0.00, 0.00, 0.00, 0.00, 0.00, 0.000, 0.000, 0.000, 11:01:47.457, 1561474907457
218, -33166.95, 0.00, 0.00, 0.00, 0.00, 0.00, 0.00, 0.00, 0.000, 0.000, 0.000, 11:01:47.457, 1561474907457
219, -34390.15, 0.00, 0.00, 0.00, 0.00, 0.00, 0.00, 0.00, 0.000, 0.000, 0.000, 11:01:47.457, 1561474907457
220, -34912.48, 0.00, 0.00, 0.00, 0.00, 0.00, 0.00, 0.00, 0.000, 0.000, 0.000, 11:01:47.457, 1561474907457
221, -33762.00, 0.00, 0.00, 0.00, 0.00, 0.00, 0.00, 0.00, 0.000, 0.000, 0.000, 11:01:47.457, 1561474907457
222, -33016.57, 0.00, 0.00, 0.00, 0.00, 0.00, 0.00, 0.00, 0.000, 0.000, 0.000, 11:01:47.457, 1561474907457
223, -34089.67, 0.00, 0.00, 0.00, 0.00, 0.00, 0.00, 0.00, 0.000, 0.000, 0.000, 11:01:47.457, 1561474907457
224, -34918.77, 0.00, 0.00, 0.00, 0.00, 0.00, 0.00, 0.00, 0.000, 0.000, 0.000, 11:01:47.457, 1561474907457
225, -33974.11, 0.00, 0.00, 0.00, 0.00, 0.00, 0.00, 0.00, 0.000, 0.000, 0.000, 11:01:47.458, 1561474907458
226, -33083.87, 0.00, 0.00, 0.00, 0.00, 0.00, 0.00, 0.00, 0.064, -0.036, 1.030, 11:01:47.458, 1561474907458
227, -33954.91, 0.00, 0.00, 0.00, 0.00, 0.00, 0.00, 0.00, 0.000, 0.000, 0.000, 11:01:47.458, 1561474907458
228, -35016.38, 0.00, 0.00, 0.00, 0.00, 0.00, 0.00, 0.00, 0.000, 0.000, 0.000, 11:01:47.458, 1561474907458
229, -34262.90, 0.00, 0.00, 0.00, 0.00, 0.00, 0.00, 0.00, 0.000, 0.000, 0.000, 11:01:47.458, 1561474907458
230, -33141.89, 0.00, 0.00, 0.00, 0.00, 0.00, 0.00, 0.00, 0.000, 0.000, 0.000, 11:01:47.458, 1561474907458
231, -33704.46, 0.00, 0.00, 0.00, 0.00, 0.00, 0.00, 0.00, 0.000, 0.000, 0.000, 11:01:47.458, 1561474907458
232, -34880.81, 0.00, 0.00, 0.00, 0.00, 0.00, 0.00, 0.00, 0.000, 0.000, 0.000, 11:01:47.458, 1561474907458
233, -34454.32, 0.00, 0.00, 0.00, 0.00, 0.00, 0.00, 0.00, 0.000, 0.000, 0.000, 11:01:47.458, 1561474907458
234, -33214.13, 0.00, 0.00, 0.00, 0.00, 0.00, 0.00, 0.00, 0.000, 0.000, 0.000, 11:01:47.458, 1561474907458
235, -33496.73, 0.00, 0.00, 0.00, 0.00, 0.00, 0.00, 0.00, 0.000, 0.000, 0.000, 11:01:47.458, 1561474907458
236, -34791.79, 0.00, 0.00, 0.00, 0.00, 0.00, 0.00, 0.00, 0.000, 0.000, 0.000, 11:01:47.459, 1561474907459
237, -34676.54, 0.00, 0.00, 0.00, 0.00, 0.00, 0.00, 0.00, 0.058, -0.036, 1.028, 11:01:47.459, 1561474907459
238, -33384.81, 0.00, 0.00, 0.00, 0.00, 0.00, 0.00, 0.00, 0.000, 0.000, 0.000, 11:01:47.459, 1561474907459
239, -33326.34, 0.00, 0.00, 0.00, 0.00, 0.00, 0.00, 0.00, 0.000, 0.000, 0.000, 11:01:47.459, 1561474907459
240, -34621.96, 0.00, 0.00, 0.00, 0.00, 0.00, 0.00, 0.00, 0.000, 0.000, 0.000, 11:01:47.459, 1561474907459
241, -34842.75, 0.00, 0.00, 0.00, 0.00, 0.00, 0.00, 0.00, 0.000, 0.000, 0.000, 11:01:47.459, 1561474907459
242, -33598.05, 0.00, 0.00, 0.00, 0.00, 0.00, 0.00, 0.00, 0.000, 0.000, 0.000, 11:01:47.459, 1561474907459
243, -33217.39, 0.00, 0.00, 0.00, 0.00, 0.00, 0.00, 0.00, 0.000, 0.000, 0.000, 11:01:47.459, 1561474907459
244, -34433.62, 0.00, 0.00, 0.00, 0.00, 0.00, 0.00, 0.00, 0.000, 0.000, 0.000, 11:01:47.459, 1561474907459
245, -34969.48, 0.00, 0.00, 0.00, 0.00, 0.00, 0.00, 0.00, 0.000, 0.000, 0.000, 11:01:47.459, 1561474907459
246, -33794.07, 0.00, 0.00, 0.00, 0.00, 0.00, 0.00, 0.00, 0.000, 0.000, 0.000, 11:01:47.460, 1561474907460
247, -33111.56, 0.00, 0.00, 0.00, 0.00, 0.00, 0.00, 0.00, 0.056, -0.036, 1.026, 11:01:47.460, 1561474907460
248, -34180.29, 0.00, 0.00, 0.00, 0.00, 0.00, 0.00, 0.00, 0.000, 0.000, 0.000, 11:01:47.460, 1561474907460
249, -35013.40, 0.00, 0.00, 0.00, 0.00, 0.00, 0.00, 0.00, 0.000, 0.000, 0.000, 11:01:47.460, 1561474907460
250, -34053.84, 0.00, 0.00, 0.00, 0.00, 0.00, 0.00, 0.00, 0.000, 0.000, 0.000, 11:01:47.460, 1561474907460
251, -33124.17, 0.00, 0.00, 0.00, 0.00, 0.00, 0.00, 0.00, 0.000, 0.000, 0.000, 11:01:47.460, 1561474907460
252, -33989.78, 0.00, 0.00, 0.00, 0.00, 0.00, 0.00, 0.00, 0.000, 0.000, 0.000, 11:01:47.460, 1561474907460
253, -35003.50, 0.00, 0.00, 0.00, 0.00, 0.00, 0.00, 0.00, 0.000, 0.000, 0.000, 11:01:47.460, 1561474907460
254, -34273.49, 0.00, 0.00, 0.00, 0.00, 0.00, 0.00, 0.00, 0.000, 0.000, 0.000, 11:01:47.460, 1561474907460
255, -33174.66, 0.00, 0.00, 0.00, 0.00, 0.00, 0.00, 0.00, 0.000, 0.000, 0.000, 11:01:47.460, 1561474907460
0, -33760.79, 0.00, 0.00, 0.00, 0.00, 0.00, 0.00, 0.00, 0.000, 0.000, 0.000, 11:01:47.460, 1561474907460
1, -34945.77, 0.00, 0.00, 0.00, 0.00, 0.00, 0.00, 0.00, 0.056, -0.030, 1.030, 11:01:47.460, 1561474907460
2, -34496.32, 0.00, 0.00, 0.00, 0.00, 0.00, 0.00, 0.00, 0.000, 0.000, 0.000, 11:01:47.460, 1561474907460
3, -33270.05, 0.00, 0.00, 0.00, 0.00, 0.00, 0.00, 0.00, 0.000, 0.000, 0.000, 11:01:47.460, 1561474907460
4, -33551.78, 0.00, 0.00, 0.00, 0.00, 0.00, 0.00, 0.00, 0.000, 0.000, 0.000, 11:01:47.460, 1561474907460
5, -34830.81, 0.00, 0.00, 0.00, 0.00, 0.00, 0.00, 0.00, 0.000, 0.000, 0.000, 11:01:47.460, 1561474907460
6, -34737.67, 0.00, 0.00, 0.00, 0.00, 0.00, 0.00, 0.00, 0.000, 0.000, 0.000, 11:01:47.460, 1561474907460
7, -33442.77, 0.00, 0.00, 0.00, 0.00, 0.00, 0.00, 0.00, 0.000, 0.000, 0.000, 11:01:47.460, 1561474907460
8, -33376.27, 0.00, 0.00, 0.00, 0.00, 0.00, 0.00, 0.00, 0.000, 0.000, 0.000, 11:01:47.460, 1561474907460
9, -34656.33, 0.00, 0.00, 0.00, 0.00, 0.00, 0.00, 0.00, 0.000, 0.000, 0.000, 11:01:47.460, 1561474907460
10, -34856.92, 0.00, 0.00, 0.00, 0.00, 0.00, 0.00, 0.00, 0.000, 0.000, 0.000, 11:01:47.460, 1561474907460
11, -33625.56, 0.00, 0.00, 0.00, 0.00, 0.00, 0.00, 0.00, 0.060, -0.034, 1.030, 11:01:47.460, 1561474907460
12, -33262.50, 0.00, 0.00, 0.00, 0.00, 0.00, 0.00, 0.00, 0.000, 0.000, 0.000, 11:01:47.460, 1561474907460
13, -34462.66, 0.00, 0.00, 0.00, 0.00, 0.00, 0.00, 0.00, 0.000, 0.000, 0.000, 11:01:47.460, 1561474907460
14, -34995.66, 0.00, 0.00, 0.00, 0.00, 0.00, 0.00, 0.00, 0.000, 0.000, 0.000, 11:01:47.460, 1561474907460
15, -33828.16, 0.00, 0.00, 0.00, 0.00, 0.00, 0.00, 0.00, 0.000, 0.000, 0.000, 11:01:47.460, 1561474907460
16, -33143.48, 0.00, 0.00, 0.00, 0.00, 0.00, 0.00, 0.00, 0.000, 0.000, 0.000, 11:01:47.460, 1561474907460
17, -34229.71, 0.00, 0.00, 0.00, 0.00, 0.00, 0.00, 0.00, 0.000, 0.000, 0.000, 11:01:47.461, 1561474907461
18, -35061.19, 0.00, 0.00, 0.00, 0.00, 0.00, 0.00, 0.00, 0.000, 0.000, 0.000, 11:01:47.461, 1561474907461
19, -34086.45, 0.00, 0.00, 0.00, 0.00, 0.00, 0.00, 0.00, 0.000, 0.000, 0.000, 11:01:47.461, 1561474907461
20, -33135.57, 0.00, 0.00, 0.00, 0.00, 0.00, 0.00, 0.00, 0.000, 0.000, 0.000, 11:01:47.461, 1561474907461
21, -33994.95, 0.00, 0.00, 0.00, 0.00, 0.00, 0.00, 0.00, 0.056, -0.028, 1.032, 11:01:47.461, 1561474907461
22, -35052.34, 0.00, 0.00, 0.00, 0.00, 0.00, 0.00, 0.00, 0.000, 0.000, 0.000, 11:01:47.461, 1561474907461
23, -34339.54, 0.00, 0.00, 0.00, 0.00, 0.00, 0.00, 0.00, 0.000, 0.000, 0.000, 11:01:47.461, 1561474907461
24, -33202.84, 0.00, 0.00, 0.00, 0.00, 0.00, 0.00, 0.00, 0.000, 0.000, 0.000, 11:01:47.461, 1561474907461
25, -33786.88, 0.00, 0.00, 0.00, 0.00, 0.00, 0.00, 0.00, 0.000, 0.000, 0.000, 11:01:47.461, 1561474907461
26, -34977.77, 0.00, 0.00, 0.00, 0.00, 0.00, 0.00, 0.00, 0.000, 0.000, 0.000, 11:01:47.461, 1561474907461
27, -34556.78, 0.00, 0.00, 0.00, 0.00, 0.00, 0.00, 0.00, 0.000, 0.000, 0.000, 11:01:47.461, 1561474907461
28, -33352.91, 0.00, 0.00, 0.00, 0.00, 0.00, 0.00, 0.00, 0.000, 0.000, 0.000, 11:01:47.461, 1561474907461
29, -33623.88, 0.00, 0.00, 0.00, 0.00, 0.00, 0.00, 0.00, 0.000, 0.000, 0.000, 11:01:47.461, 1561474907461
30, -34866.13, 0.00, 0.00, 0.00, 0.00, 0.00, 0.00, 0.00, 0.000, 0.000, 0.000, 11:01:47.461, 1561474907461
31, -34743.48, 0.00, 0.00, 0.00, 0.00, 0.00, 0.00, 0.00, 0.058, -0.028, 1.034, 11:01:47.461, 1561474907461
32, -33455.69, 0.00, 0.00, 0.00, 0.00, 0.00, 0.00, 0.00, 0.000, 0.000, 0.000, 11:01:47.461, 1561474907461
33, -33407.70, 0.00, 0.00, 0.00, 0.00, 0.00, 0.00, 0.00, 0.000, 0.000, 0.000, 11:01:47.461, 1561474907461
34, -34699.72, 0.00, 0.00, 0.00, 0.00, 0.00, 0.00, 0.00, 0.000, 0.000, 0.000, 11:01:47.461, 1561474907461
35, -34950.15, 0.00, 0.00, 0.00, 0.00, 0.00, 0.00, 0.00, 0.000, 0.000, 0.000, 11:01:47.461, 1561474907461
36, -33689.13, 0.00, 0.00, 0.00, 0.00, 0.00, 0.00, 0.00, 0.000, 0.000, 0.000, 11:01:47.461, 1561474907461
37, -33318.92, 0.00, 0.00, 0.00, 0.00, 0.00, 0.00, 0.00, 0.000, 0.000, 0.000, 11:01:47.461, 1561474907461
38, -34533.94, 0.00, 0.00, 0.00, 0.00, 0.00, 0.00, 0.00, 0.000, 0.000, 0.000, 11:01:47.461, 1561474907461
39, -35061.14, 0.00, 0.00, 0.00, 0.00, 0.00, 0.00, 0.00, 0.000, 0.000, 0.000, 11:01:47.461, 1561474907461
40, -33894.09, 0.00, 0.00, 0.00, 0.00, 0.00, 0.00, 0.00, 0.000, 0.000, 0.000, 11:01:47.462, 1561474907462
41, -33224.13, 0.00, 0.00, 0.00, 0.00, 0.00, 0.00, 0.00, 0.000, 0.000, 0.000, 11:01:47.462, 1561474907462
42, -34302.37, 0.00, 0.00, 0.00, 0.00, 0.00, 0.00, 0.00, 0.054, -0.026, 1.034, 11:01:47.462, 1561474907462
43, -35103.73, 0.00, 0.00, 0.00, 0.00, 0.00, 0.00, 0.00, 0.000, 0.000, 0.000, 11:01:47.462, 1561474907462
44, -34149.13, 0.00, 0.00, 0.00, 0.00, 0.00, 0.00, 0.00, 0.000, 0.000, 0.000, 11:01:47.462, 1561474907462
45, -33238.59, 0.00, 0.00, 0.00, 0.00, 0.00, 0.00, 0.00, 0.000, 0.000, 0.000, 11:01:47.462, 1561474907462
46, -34087.62, 0.00, 0.00, 0.00, 0.00, 0.00, 0.00, 0.00, 0.000, 0.000, 0.000, 11:01:47.462, 1561474907462
47, -35102.18, 0.00, 0.00, 0.00, 0.00, 0.00, 0.00, 0.00, 0.000, 0.000, 0.000, 11:01:47.462, 1561474907462
48, -34355.30, 0.00, 0.00, 0.00, 0.00, 0.00, 0.00, 0.00, 0.000, 0.000, 0.000, 11:01:47.462, 1561474907462
49, -33251.35, 0.00, 0.00, 0.00, 0.00, 0.00, 0.00, 0.00, 0.000, 0.000, 0.000, 11:01:47.462, 1561474907462
50, -33860.75, 0.00, 0.00, 0.00, 0.00, 0.00, 0.00, 0.00, 0.000, 0.000, 0.000, 11:01:47.463, 1561474907463
51, -35037.72, 0.00, 0.00, 0.00, 0.00, 0.00, 0.00, 0.00, 0.000, 0.000, 0.000, 11:01:47.463, 1561474907463
52, -34604.93, 0.00, 0.00, 0.00, 0.00, 0.00, 0.00, 0.00, 0.058, -0.028, 1.030, 11:01:47.463, 1561474907463
53, -33379.36, 0.00, 0.00, 0.00, 0.00, 0.00, 0.00, 0.00, 0.000, 0.000, 0.000, 11:01:47.463, 1561474907463
54, -33649.86, 0.00, 0.00, 0.00, 0.00, 0.00, 0.00, 0.00, 0.000, 0.000, 0.000, 11:01:47.463, 1561474907463
55, -34917.43, 0.00, 0.00, 0.00, 0.00, 0.00, 0.00, 0.00, 0.000, 0.000, 0.000, 11:01:47.463, 1561474907463
56, -34800.73, 0.00, 0.00, 0.00, 0.00, 0.00, 0.00, 0.00, 0.000, 0.000, 0.000, 11:01:47.463, 1561474907463
57, -33521.51, 0.00, 0.00, 0.00, 0.00, 0.00, 0.00, 0.00, 0.000, 0.000, 0.000, 11:01:47.463, 1561474907463
58, -33496.48, 0.00, 0.00, 0.00, 0.00, 0.00, 0.00, 0.00, 0.000, 0.000, 0.000, 11:01:47.936, 1561474907936
59, -34767.85, 0.00, 0.00, 0.00, 0.00, 0.00, 0.00, 0.00, 0.000, 0.000, 0.000, 11:01:47.936, 1561474907936
60, -34961.52, 0.00, 0.00, 0.00, 0.00, 0.00, 0.00, 0.00, 0.000, 0.000, 0.000, 11:01:47.936, 1561474907936
61, -33697.24, 0.00, 0.00, 0.00, 0.00, 0.00, 0.00, 0.00, 0.000, 0.000, 0.000, 11:01:47.936, 1561474907936
62, -33341.22, 0.00, 0.00, 0.00, 0.00, 0.00, 0.00, 0.00, 0.066, -0.026, 1.034, 11:01:47.936, 1561474907936
63, -34553.14, 0.00, 0.00, 0.00, 0.00, 0.00, 0.00, 0.00, 0.000, 0.000, 0.000, 11:01:47.936, 1561474907936
64, -35089.13, 0.00, 0.00, 0.00, 0.00, 0.00, 0.00, 0.00, 0.000, 0.000, 0.000, 11:01:47.936, 1561474907936
65, -33958.36, 0.00, 0.00, 0.00, 0.00, 0.00, 0.00, 0.00, 0.000, 0.000, 0.000, 11:01:47.938, 1561474907938
66, -33288.05, 0.00, 0.00, 0.00, 0.00, 0.00, 0.00, 0.00, 0.000, 0.000, 0.000, 11:01:47.938, 1561474907938
67, -34347.90, 0.00, 0.00, 0.00, 0.00, 0.00, 0.00, 0.00, 0.000, 0.000, 0.000, 11:01:47.938, 1561474907938
68, -35159.61, 0.00, 0.00, 0.00, 0.00, 0.00, 0.00, 0.00, 0.000, 0.000, 0.000, 11:01:47.938, 1561474907938
69, -34188.09, 0.00, 0.00, 0.00, 0.00, 0.00, 0.00, 0.00, 0.000, 0.000, 0.000, 11:01:47.938, 1561474907938
70, -33266.68, 0.00, 0.00, 0.00, 0.00, 0.00, 0.00, 0.00, 0.000, 0.000, 0.000, 11:01:47.938, 1561474907938
71, -34139.98, 0.00, 0.00, 0.00, 0.00, 0.00, 0.00, 0.00, 0.000, 0.000, 0.000, 11:01:47.938, 1561474907938
72, -35150.51, 0.00, 0.00, 0.00, 0.00, 0.00, 0.00, 0.00, 0.062, -0.026, 1.038, 11:01:47.938, 1561474907938
73, -34409.41, 0.00, 0.00, 0.00, 0.00, 0.00, 0.00, 0.00, 0.000, 0.000, 0.000, 11:01:47.938, 1561474907938
74, -33298.71, 0.00, 0.00, 0.00, 0.00, 0.00, 0.00, 0.00, 0.000, 0.000, 0.000, 11:01:47.938, 1561474907938
75, -33898.68, 0.00, 0.00, 0.00, 0.00, 0.00, 0.00, 0.00, 0.000, 0.000, 0.000, 11:01:47.938, 1561474907938
76, -35088.17, 0.00, 0.00, 0.00, 0.00, 0.00, 0.00, 0.00, 0.000, 0.000, 0.000, 11:01:47.938, 1561474907938
77, -34658.64, 0.00, 0.00, 0.00, 0.00, 0.00, 0.00, 0.00, 0.000, 0.000, 0.000, 11:01:47.938, 1561474907938
78, -33424.51, 0.00, 0.00, 0.00, 0.00, 0.00, 0.00, 0.00, 0.000, 0.000, 0.000, 11:01:47.938, 1561474907938
79, -33686.56, 0.00, 0.00, 0.00, 0.00, 0.00, 0.00, 0.00, 0.000, 0.000, 0.000, 11:01:47.938, 1561474907938
80, -34931.37, 0.00, 0.00, 0.00, 0.00, 0.00, 0.00, 0.00, 0.000, 0.000, 0.000, 11:01:47.938, 1561474907938
81, -34797.22, 0.00, 0.00, 0.00, 0.00, 0.00, 0.00, 0.00, 0.000, 0.000, 0.000, 11:01:47.938, 1561474907938
82, -33548.96, 0.00, 0.00, 0.00, 0.00, 0.00, 0.00, 0.00, 0.064, -0.026, 1.042, 11:01:47.938, 1561474907938
83, -33533.00, 0.00, 0.00, 0.00, 0.00, 0.00, 0.00, 0.00, 0.000, 0.000, 0.000, 11:01:47.938, 1561474907938
84, -34819.30, 0.00, 0.00, 0.00, 0.00, 0.00, 0.00, 0.00, 0.000, 0.000, 0.000, 11:01:47.938, 1561474907938
85, -35010.43, 0.00, 0.00, 0.00, 0.00, 0.00, 0.00, 0.00, 0.000, 0.000, 0.000, 11:01:47.938, 1561474907938
86, -33748.43, 0.00, 0.00, 0.00, 0.00, 0.00, 0.00, 0.00, 0.000, 0.000, 0.000, 11:01:47.939, 1561474907939
87, -33399.45, 0.00, 0.00, 0.00, 0.00, 0.00, 0.00, 0.00, 0.000, 0.000, 0.000, 11:01:47.939, 1561474907939
88, -34616.32, 0.00, 0.00, 0.00, 0.00, 0.00, 0.00, 0.00, 0.000, 0.000, 0.000, 11:01:47.939, 1561474907939
89, -35128.92, 0.00, 0.00, 0.00, 0.00, 0.00, 0.00, 0.00, 0.000, 0.000, 0.000, 11:01:47.939, 1561474907939
90, -33963.34, 0.00, 0.00, 0.00, 0.00, 0.00, 0.00, 0.00, 0.000, 0.000, 0.000, 11:01:47.939, 1561474907939
91, -33298.53, 0.00, 0.00, 0.00, 0.00, 0.00, 0.00, 0.00, 0.000, 0.000, 0.000, 11:01:47.939, 1561474907939
92, -34385.30, 0.00, 0.00, 0.00, 0.00, 0.00, 0.00, 0.00, 0.000, 0.000, 0.000, 11:01:47.939, 1561474907939
93, -35199.01, 0.00, 0.00, 0.00, 0.00, 0.00, 0.00, 0.00, 0.068, -0.028, 1.040, 11:01:47.939, 1561474907939
94, -34213.23, 0.00, 0.00, 0.00, 0.00, 0.00, 0.00, 0.00, 0.000, 0.000, 0.000, 11:01:47.939, 1561474907939
95, -33295.02, 0.00, 0.00, 0.00, 0.00, 0.00, 0.00, 0.00, 0.000, 0.000, 0.000, 11:01:47.939, 1561474907939
96, -34139.52, 0.00, 0.00, 0.00, 0.00, 0.00, 0.00, 0.00, 0.000, 0.000, 0.000, 11:01:47.939, 1561474907939
97, -35144.18, 0.00, 0.00, 0.00, 0.00, 0.00, 0.00, 0.00, 0.000, 0.000, 0.000, 11:01:47.939, 1561474907939
98, -34412.27, 0.00, 0.00, 0.00, 0.00, 0.00, 0.00, 0.00, 0.000, 0.000, 0.000, 11:01:47.939, 1561474907939
