%OpenBCI Raw EEG Data
%Number of channels = 8
%Sample Rate = 250.0 Hz
%First Column = SampleIndex
%Last Column = Timestamp 
%Other Columns = EEG data in microvolts followed by Accel Data (in G) interleaved with Aux Data
0, 0.00, 0.00, 0.00, 0.00, 0.00, 0.00, 0.00, 0.00, 0.000, 0.000, 0.000, 11:10:16.607, 1561475416607
1, -34546.03, 0.00, 0.00, 0.00, 0.00, 0.00, 0.00, 0.00, 0.086, -0.054, 1.026, 11:10:17.088, 1561475417088
2, -34664.67, 0.00, 0.00, 0.00, 0.00, 0.00, 0.00, 0.00, 0.000, 0.000, 0.000, 11:10:17.088, 1561475417088
3, -35341.19, 0.00, 0.00, 0.00, 0.00, 0.00, 0.00, 0.00, 0.000, 0.000, 0.000, 11:10:17.088, 1561475417088
4, -35225.19, 0.00, 0.00, 0.00, 0.00, 0.00, 0.00, 0.00, 0.000, 0.000, 0.000, 11:10:17.088, 1561475417088
5, -34540.46, 0.00, 0.00, 0.00, 0.00, 0.00, 0.00, 0.00, 0.000, 0.000, 0.000, 11:10:17.088, 1561475417088
6, -34566.05, 0.00, 0.00, 0.00, 0.00, 0.00, 0.00, 0.00, 0.000, 0.000, 0.000, 11:10:17.089, 1561475417089
7, -35253.86, 0.00, 0.00, 0.00, 0.00, 0.00, 0.00, 0.00, 0.000, 0.000, 0.000, 11:10:17.089, 1561475417089
8, -35277.46, 0.00, 0.00, 0.00, 0.00, 0.00, 0.00, 0.00, 0.090, -0.048, 1.028, 11:10:17.089, 1561475417089
9, -34666.79, 0.00, 0.00, 0.00, 0.00, 0.00, 0.00, 0.00, 0.000, 0.000, 0.000, 11:10:17.089, 1561475417089
10, -34604.79, 0.00, 0.00, 0.00, 0.00, 0.00, 0.00, 0.00, 0.000, 0.000, 0.000, 11:10:17.089, 1561475417089
11, -35210.46, 0.00, 0.00, 0.00, 0.00, 0.00, 0.00, 0.00, 0.000, 0.000, 0.000, 11:10:17.089, 1561475417089
12, -35411.87, 0.00, 0.00, 0.00, 0.00, 0.00, 0.00, 0.00, 0.000, 0.000, 0.000, 11:10:17.089, 1561475417089
13, -34786.00, 0.00, 0.00, 0.00, 0.00, 0.00, 0.00, 0.00, 0.000, 0.000, 0.000, 11:10:17.089, 1561475417089
14, -34601.15, 0.00, 0.00, 0.00, 0.00, 0.00, 0.00, 0.00, 0.000, 0.000, 0.000, 11:10:17.089, 1561475417089
15, -35062.55, 0.00, 0.00, 0.00, 0.00, 0.00, 0.00, 0.00, 0.000, 0.000, 0.000, 11:10:17.089, 1561475417089
16, -35398.43, 0.00, 0.00, 0.00, 0.00, 0.00, 0.00, 0.00, 0.000, 0.000, 0.000, 11:10:17.089, 1561475417089
17, -34944.76, 0.00, 0.00, 0.00, 0.00, 0.00, 0.00, 0.00, 0.000, 0.000, 0.000, 11:10:17.089, 1561475417089
18, -34499.74, 0.00, 0.00, 0.00, 0.00, 0.00, 0.00, 0.00, 0.086, -0.054, 1.034, 11:10:17.090, 1561475417090
19, -34928.36, 0.00, 0.00, 0.00, 0.00, 0.00, 0.00, 0.00, 0.000, 0.000, 0.000, 11:10:17.090, 1561475417090
20, -35362.31, 0.00, 0.00, 0.00, 0.00, 0.00, 0.00, 0.00, 0.000, 0.000, 0.000, 11:10:17.090, 1561475417090
21, -35011.59, 0.00, 0.00, 0.00, 0.00, 0.00, 0.00, 0.00, 0.000, 0.000, 0.000, 11:10:17.090, 1561475417090
22, -34515.68, 0.00, 0.00, 0.00, 0.00, 0.00, 0.00, 0.00, 0.000, 0.000, 0.000, 11:10:17.090, 1561475417090
23, -34867.85, 0.00, 0.00, 0.00, 0.00, 0.00, 0.00, 0.00, 0.000, 0.000, 0.000, 11:10:17.090, 1561475417090
24, -35394.72, 0.00, 0.00, 0.00, 0.00, 0.00, 0.00, 0.00, 0.000, 0.000, 0.000, 11:10:17.090, 1561475417090
25, -35175.59, 0.00, 0.00, 0.00, 0.00, 0.00, 0.00, 0.00, 0.000, 0.000, 0.000, 11:10:17.090, 1561475417090
26, -34622.54, 0.00, 0.00, 0.00, 0.00, 0.00, 0.00, 0.00, 0.000, 0.000, 0.000, 11:10:17.090, 1561475417090
27, -34749.65, 0.00, 0.00, 0.00, 0.00, 0.00, 0.00, 0.00, 0.000, 0.000, 0.000, 11:10:17.090, 1561475417090
28, -35336.00, 0.00, 0.00, 0.00, 0.00, 0.00, 0.00, 0.00, 0.088, -0.048, 1.020, 11:10:17.090, 1561475417090
29, -35234.84, 0.00, 0.00, 0.00, 0.00, 0.00, 0.00, 0.00, 0.000, 0.000, 0.000, 11:10:17.090, 1561475417090
30, -34633.63, 0.00, 0.00, 0.00, 0.00, 0.00, 0.00, 0.00, 0.000, 0.000, 0.000, 11:10:17.090, 1561475417090
31, -34704.43, 0.00, 0.00, 0.00, 0.00, 0.00, 0.00, 0.00, 0.000, 0.000, 0.000, 11:10:17.095, 1561475417095
32, -35405.99, 0.00, 0.00, 0.00, 0.00, 0.00, 0.00, 0.00, 0.000, 0.000, 0.000, 11:10:17.096, 1561475417096
33, -35330.15, 0.00, 0.00, 0.00, 0.00, 0.00, 0.00, 0.00, 0.000, 0.000, 0.000, 11:10:17.096, 1561475417096
34, -34758.04, 0.00, 0.00, 0.00, 0.00, 0.00, 0.00, 0.00, 0.000, 0.000, 0.000, 11:10:17.096, 1561475417096
35, -34595.13, 0.00, 0.00, 0.00, 0.00, 0.00, 0.00, 0.00, 0.000, 0.000, 0.000, 11:10:17.096, 1561475417096
36, -35206.43, 0.00, 0.00, 0.00, 0.00, 0.00, 0.00, 0.00, 0.000, 0.000, 0.000, 11:10:17.096, 1561475417096
37, -35416.18, 0.00, 0.00, 0.00, 0.00, 0.00, 0.00, 0.00, 0.000, 0.000, 0.000, 11:10:17.096, 1561475417096
38, -34881.48, 0.00, 0.00, 0.00, 0.00, 0.00, 0.00, 0.00, 0.000, 0.000, 0.000, 11:10:17.096, 1561475417096
39, -34510.67, 0.00, 0.00, 0.00, 0.00, 0.00, 0.00, 0.00, 0.088, -0.052, 1.022, 11:10:17.096, 1561475417096
40, -35048.90, 0.00, 0.00, 0.00, 0.00, 0.00, 0.00, 0.00, 0.000, 0.000, 0.000, 11:10:17.096, 1561475417096
41, -35444.70, 0.00, 0.00, 0.00, 0.00, 0.00, 0.00, 0.00, 0.000, 0.000, 0.000, 11:10:17.096, 1561475417096
42, -34992.95, 0.00, 0.00, 0.00, 0.00, 0.00, 0.00, 0.00, 0.000, 0.000, 0.000, 11:10:17.096, 1561475417096
43, -34518.82, 0.00, 0.00, 0.00, 0.00, 0.00, 0.00, 0.00, 0.000, 0.000, 0.000, 11:10:17.096, 1561475417096
44, -34970.51, 0.00, 0.00, 0.00, 0.00, 0.00, 0.00, 0.00, 0.000, 0.000, 0.000, 11:10:17.096, 1561475417096
45, -35502.68, 0.00, 0.00, 0.00, 0.00, 0.00, 0.00, 0.00, 0.000, 0.000, 0.000, 11:10:17.097, 1561475417097
46, -35132.56, 0.00, 0.00, 0.00, 0.00, 0.00, 0.00, 0.00, 0.000, 0.000, 0.000, 11:10:17.097, 1561475417097
47, -34552.62, 0.00, 0.00, 0.00, 0.00, 0.00, 0.00, 0.00, 0.000, 0.000, 0.000, 11:10:17.097, 1561475417097
48, -34851.93, 0.00, 0.00, 0.00, 0.00, 0.00, 0.00, 0.00, 0.000, 0.000, 0.000, 11:10:17.097, 1561475417097
49, -35373.47, 0.00, 0.00, 0.00, 0.00, 0.00, 0.00, 0.00, 0.088, -0.050, 1.026, 11:10:17.097, 1561475417097
50, -35165.86, 0.00, 0.00, 0.00, 0.00, 0.00, 0.00, 0.00, 0.000, 0.000, 0.000, 11:10:17.097, 1561475417097
51, -34595.49, 0.00, 0.00, 0.00, 0.00, 0.00, 0.00, 0.00, 0.000, 0.000, 0.000, 11:10:17.097, 1561475417097
52, -34710.69, 0.00, 0.00, 0.00, 0.00, 0.00, 0.00, 0.00, 0.000, 0.000, 0.000, 11:10:17.097, 1561475417097
53, -35337.39, 0.00, 0.00, 0.00, 0.00, 0.00, 0.00, 0.00, 0.000, 0.000, 0.000, 11:10:17.097, 1561475417097
54, -35225.54, 0.00, 0.00, 0.00, 0.00, 0.00, 0.00, 0.00, 0.000, 0.000, 0.000, 11:10:17.097, 1561475417097
55, -34667.82, 0.00, 0.00, 0.00, 0.00, 0.00, 0.00, 0.00, 0.000, 0.000, 0.000, 11:10:17.097, 1561475417097
56, -34663.96, 0.00, 0.00, 0.00, 0.00, 0.00, 0.00, 0.00, 0.000, 0.000, 0.000, 11:10:17.097, 1561475417097
57, -35311.26, 0.00, 0.00, 0.00, 0.00, 0.00, 0.00, 0.00, 0.000, 0.000, 0.000, 11:10:17.098, 1561475417098
58, -35388.75, 0.00, 0.00, 0.00, 0.00, 0.00, 0.00, 0.00, 0.000, 0.000, 0.000, 11:10:17.098, 1561475417098
59, -34822.12, 0.00, 0.00, 0.00, 0.00, 0.00, 0.00, 0.00, 0.092, -0.054, 1.036, 11:10:17.098, 1561475417098
60, -34602.09, 0.00, 0.00, 0.00, 0.00, 0.00, 0.00, 0.00, 0.000, 0.000, 0.000, 11:10:17.098, 1561475417098
61, -35151.92, 0.00, 0.00, 0.00, 0.00, 0.00, 0.00, 0.00, 0.000, 0.000, 0.000, 11:10:17.098, 1561475417098
62, -35430.57, 0.00, 0.00, 0.00, 0.00, 0.00, 0.00, 0.00, 0.000, 0.000, 0.000, 11:10:17.098, 1561475417098
63, -34773.30, 0.00, 0.00, 0.00, 0.00, 0.00, 0.00, 0.00, 0.000, 0.000, 0.000, 11:10:17.098, 1561475417098
64, -34563.71, 0.00, 0.00, 0.00, 0.00, 0.00, 0.00, 0.00, 0.000, 0.000, 0.000, 11:10:17.098, 1561475417098
65, -35076.86, 0.00, 0.00, 0.00, 0.00, 0.00, 0.00, 0.00, 0.000, 0.000, 0.000, 11:10:17.098, 1561475417098
66, -35347.47, 0.00, 0.00, 0.00, 0.00, 0.00, 0.00, 0.00, 0.000, 0.000, 0.000, 11:10:17.098, 1561475417098
67, -34899.95, 0.00, 0.00, 0.00, 0.00, 0.00, 0.00, 0.00, 0.000, 0.000, 0.000, 11:10:17.098, 1561475417098
68, -34503.67, 0.00, 0.00, 0.00, 0.00, 0.00, 0.00, 0.00, 0.000, 0.000, 0.000, 11:10:17.098, 1561475417098
69, -35052.72, 0.00, 0.00, 0.00, 0.00, 0.00, 0.00, 0.00, 0.084, -0.046, 1.032, 11:10:17.098, 1561475417098
70, -35383.26, 0.00, 0.00, 0.00, 0.00, 0.00, 0.00, 0.00, 0.000, 0.000, 0.000, 11:10:17.099, 1561475417099
71, -35038.97, 0.00, 0.00, 0.00, 0.00, 0.00, 0.00, 0.00, 0.000, 0.000, 0.000, 11:10:17.099, 1561475417099
72, -34511.74, 0.00, 0.00, 0.00, 0.00, 0.00, 0.00, 0.00, 0.000, 0.000, 0.000, 11:10:17.099, 1561475417099
73, -34773.93, 0.00, 0.00, 0.00, 0.00, 0.00, 0.00, 0.00, 0.000, 0.000, 0.000, 11:10:17.099, 1561475417099
74, -35371.21, 0.00, 0.00, 0.00, 0.00, 0.00, 0.00, 0.00, 0.000, 0.000, 0.000, 11:10:17.099, 1561475417099
75, -35275.07, 0.00, 0.00, 0.00, 0.00, 0.00, 0.00, 0.00, 0.000, 0.000, 0.000, 11:10:17.099, 1561475417099
76, -34619.12, 0.00, 0.00, 0.00, 0.00, 0.00, 0.00, 0.00, 0.000, 0.000, 0.000, 11:10:17.099, 1561475417099
77, -34772.63, 0.00, 0.00, 0.00, 0.00, 0.00, 0.00, 0.00, 0.000, 0.000, 0.000, 11:10:17.099, 1561475417099
78, -35388.04, 0.00, 0.00, 0.00, 0.00, 0.00, 0.00, 0.00, 0.000, 0.000, 0.000, 11:10:17.099, 1561475417099
79, -35263.63, 0.00, 0.00, 0.00, 0.00, 0.00, 0.00, 0.00, 0.084, -0.048, 1.034, 11:10:17.099, 1561475417099
80, -34609.93, 0.00, 0.00, 0.00, 0.00, 0.00, 0.00, 0.00, 0.000, 0.000, 0.000, 11:10:17.099, 1561475417099
81, -34661.56, 0.00, 0.00, 0.00, 0.00, 0.00, 0.00, 0.00, 0.000, 0.000, 0.000, 11:10:17.099, 1561475417099
82, -35281.18, 0.00, 0.00, 0.00, 0.00, 0.00, 0.00, 0.00, 0.000, 0.000, 0.000, 11:10:17.099, 1561475417099
83, -35372.91, 0.00, 0.00, 0.00, 0.00, 0.00, 0.00, 0.00, 0.000, 0.000, 0.000, 11:10:17.099, 1561475417099
84, -34704.30, 0.00, 0.00, 0.00, 0.00, 0.00, 0.00, 0.00, 0.000, 0.000, 0.000, 11:10:17.100, 1561475417100
85, -34580.67, 0.00, 0.00, 0.00, 0.00, 0.00, 0.00, 0.00, 0.000, 0.000, 0.000, 11:10:17.100, 1561475417100
86, -35136.20, 0.00, 0.00, 0.00, 0.00, 0.00, 0.00, 0.00, 0.000, 0.000, 0.000, 11:10:17.100, 1561475417100
87, -35365.55, 0.00, 0.00, 0.00, 0.00, 0.00, 0.00, 0.00, 0.000, 0.000, 0.000, 11:10:17.100, 1561475417100
88, -34807.05, 0.00, 0.00, 0.00, 0.00, 0.00, 0.00, 0.00, 0.000, 0.000, 0.000, 11:10:17.100, 1561475417100
89, -34461.92, 0.00, 0.00, 0.00, 0.00, 0.00, 0.00, 0.00, 0.080, -0.042, 1.036, 11:10:17.100, 1561475417100
90, -35020.80, 0.00, 0.00, 0.00, 0.00, 0.00, 0.00, 0.00, 0.000, 0.000, 0.000, 11:10:17.100, 1561475417100
91, -35449.29, 0.00, 0.00, 0.00, 0.00, 0.00, 0.00, 0.00, 0.000, 0.000, 0.000, 11:10:17.100, 1561475417100
92, -34981.29, 0.00, 0.00, 0.00, 0.00, 0.00, 0.00, 0.00, 0.000, 0.000, 0.000, 11:10:17.100, 1561475417100
93, -34463.13, 0.00, 0.00, 0.00, 0.00, 0.00, 0.00, 0.00, 0.000, 0.000, 0.000, 11:10:17.100, 1561475417100
94, -34901.93, 0.00, 0.00, 0.00, 0.00, 0.00, 0.00, 0.00, 0.000, 0.000, 0.000, 11:10:17.100, 1561475417100
95, -35373.63, 0.00, 0.00, 0.00, 0.00, 0.00, 0.00, 0.00, 0.000, 0.000, 0.000, 11:10:17.100, 1561475417100
96, -35006.99, 0.00, 0.00, 0.00, 0.00, 0.00, 0.00, 0.00, 0.000, 0.000, 0.000, 11:10:17.100, 1561475417100
97, -34503.96, 0.00, 0.00, 0.00, 0.00, 0.00, 0.00, 0.00, 0.000, 0.000, 0.000, 11:10:17.100, 1561475417100
98, -34832.96, 0.00, 0.00, 0.00, 0.00, 0.00, 0.00, 0.00, 0.000, 0.000, 0.000, 11:10:17.100, 1561475417100
99, -35387.19, 0.00, 0.00, 0.00, 0.00, 0.00, 0.00, 0.00, 0.000, 0.000, 0.000, 11:10:17.101, 1561475417101
100, -35160.52, 0.00, 0.00, 0.00, 0.00, 0.00, 0.00, 0.00, 0.082, -0.038, 1.028, 11:10:17.101, 1561475417101
101, -34530.47, 0.00, 0.00, 0.00, 0.00, 0.00, 0.00, 0.00, 0.000, 0.000, 0.000, 11:10:17.102, 1561475417102
102, -34650.84, 0.00, 0.00, 0.00, 0.00, 0.00, 0.00, 0.00, 0.000, 0.000, 0.000, 11:10:17.102, 1561475417102
103, -35278.25, 0.00, 0.00, 0.00, 0.00, 0.00, 0.00, 0.00, 0.000, 0.000, 0.000, 11:10:17.103, 1561475417103
104, -35203.17, 0.00, 0.00, 0.00, 0.00, 0.00, 0.00, 0.00, 0.000, 0.000, 0.000, 11:10:17.103, 1561475417103
105, -34583.00, 0.00, 0.00, 0.00, 0.00, 0.00, 0.00, 0.00, 0.000, 0.000, 0.000, 11:10:17.103, 1561475417103
106, -34596.34, 0.00, 0.00, 0.00, 0.00, 0.00, 0.00, 0.00, 0.000, 0.000, 0.000, 11:10:17.103, 1561475417103
107, -35206.05, 0.00, 0.00, 0.00, 0.00, 0.00, 0.00, 0.00, 0.000, 0.000, 0.000, 11:10:17.104, 1561475417104
108, -35313.43, 0.00, 0.00, 0.00, 0.00, 0.00, 0.00, 0.00, 0.000, 0.000, 0.000, 11:10:17.104, 1561475417104
109, -34705.75, 0.00, 0.00, 0.00, 0.00, 0.00, 0.00, 0.00, 0.000, 0.000, 0.000, 11:10:17.104, 1561475417104
110, -34522.83, 0.00, 0.00, 0.00, 0.00, 0.00, 0.00, 0.00, 0.086, -0.046, 1.030, 11:10:17.104, 1561475417104
111, -35109.54, 0.00, 0.00, 0.00, 0.00, 0.00, 0.00, 0.00, 0.000, 0.000, 0.000, 11:10:17.104, 1561475417104
112, -35343.38, 0.00, 0.00, 0.00, 0.00, 0.00, 0.00, 0.00, 0.000, 0.000, 0.000, 11:10:17.104, 1561475417104
113, -34778.17, 0.00, 0.00, 0.00, 0.00, 0.00, 0.00, 0.00, 0.000, 0.000, 0.000, 11:10:17.104, 1561475417104
114, -34465.81, 0.00, 0.00, 0.00, 0.00, 0.00, 0.00, 0.00, 0.000, 0.000, 0.000, 11:10:17.104, 1561475417104
115, -34982.09, 0.00, 0.00, 0.00, 0.00, 0.00, 0.00, 0.00, 0.000, 0.000, 0.000, 11:10:17.104, 1561475417104
116, -35358.96, 0.00, 0.00, 0.00, 0.00, 0.00, 0.00, 0.00, 0.000, 0.000, 0.000, 11:10:17.104, 1561475417104
117, -34869.64, 0.00, 0.00, 0.00, 0.00, 0.00, 0.00, 0.00, 0.000, 0.000, 0.000, 11:10:17.105, 1561475417105
118, -34412.16, 0.00, 0.00, 0.00, 0.00, 0.00, 0.00, 0.00, 0.000, 0.000, 0.000, 11:10:17.105, 1561475417105
119, -34852.96, 0.00, 0.00, 0.00, 0.00, 0.00, 0.00, 0.00, 0.000, 0.000, 0.000, 11:10:17.105, 1561475417105
120, -35354.91, 0.00, 0.00, 0.00, 0.00, 0.00, 0.00, 0.00, 0.088, -0.046, 1.024, 11:10:17.105, 1561475417105
121, -34984.14, 0.00, 0.00, 0.00, 0.00, 0.00, 0.00, 0.00, 0.000, 0.000, 0.000, 11:10:17.571, 1561475417571
122, -34416.63, 0.00, 0.00, 0.00, 0.00, 0.00, 0.00, 0.00, 0.000, 0.000, 0.000, 11:10:17.571, 1561475417571
123, -34705.89, 0.00, 0.00, 0.00, 0.00, 0.00, 0.00, 0.00, 0.000, 0.000, 0.000, 11:10:17.572, 1561475417572
124, -35314.17, 0.00, 0.00, 0.00, 0.00, 0.00, 0.00, 0.00, 0.000, 0.000, 0.000, 11:10:17.572, 1561475417572
125, -35099.86, 0.00, 0.00, 0.00, 0.00, 0.00, 0.00, 0.00, 0.000, 0.000, 0.000, 11:10:17.572, 1561475417572
126, -34483.09, 0.00, 0.00, 0.00, 0.00, 0.00, 0.00, 0.00, 0.000, 0.000, 0.000, 11:10:17.572, 1561475417572
127, -34599.88, 0.00, 0.00, 0.00, 0.00, 0.00, 0.00, 0.00, 0.000, 0.000, 0.000, 11:10:17.572, 1561475417572
128, -35193.91, 0.00, 0.00, 0.00, 0.00, 0.00, 0.00, 0.00, 0.000, 0.000, 0.000, 11:10:17.572, 1561475417572
129, -35138.33, 0.00, 0.00, 0.00, 0.00, 0.00, 0.00, 0.00, 0.000, 0.000, 0.000, 11:10:17.572, 1561475417572
130, -34497.35, 0.00, 0.00, 0.00, 0.00, 0.00, 0.00, 0.00, 0.086, -0.046, 1.030, 11:10:17.572, 1561475417572
131, -34490.93, 0.00, 0.00, 0.00, 0.00, 0.00, 0.00, 0.00, 0.000, 0.000, 0.000, 11:10:17.572, 1561475417572
132, -35135.02, 0.00, 0.00, 0.00, 0.00, 0.00, 0.00, 0.00, 0.000, 0.000, 0.000, 11:10:17.572, 1561475417572
133, -35252.05, 0.00, 0.00, 0.00, 0.00, 0.00, 0.00, 0.00, 0.000, 0.000, 0.000, 11:10:17.572, 1561475417572
134, -34639.35, 0.00, 0.00, 0.00, 0.00, 0.00, 0.00, 0.00, 0.000, 0.000, 0.000, 11:10:17.572, 1561475417572
135, -34466.10, 0.00, 0.00, 0.00, 0.00, 0.00, 0.00, 0.00, 0.000, 0.000, 0.000, 11:10:17.573, 1561475417573
136, -35078.96, 0.00, 0.00, 0.00, 0.00, 0.00, 0.00, 0.00, 0.000, 0.000, 0.000, 11:10:17.573, 1561475417573
137, -35337.08, 0.00, 0.00, 0.00, 0.00, 0.00, 0.00, 0.00, 0.000, 0.000, 0.000, 11:10:17.573, 1561475417573
138, -34731.86, 0.00, 0.00, 0.00, 0.00, 0.00, 0.00, 0.00, 0.000, 0.000, 0.000, 11:10:17.573, 1561475417573
139, -34398.71, 0.00, 0.00, 0.00, 0.00, 0.00, 0.00, 0.00, 0.000, 0.000, 0.000, 11:10:17.573, 1561475417573
140, -34932.96, 0.00, 0.00, 0.00, 0.00, 0.00, 0.00, 0.00, 0.090, -0.050, 1.024, 11:10:17.573, 1561475417573
141, -35354.13, 0.00, 0.00, 0.00, 0.00, 0.00, 0.00, 0.00, 0.000, 0.000, 0.000, 11:10:17.573, 1561475417573
142, -34857.68, 0.00, 0.00, 0.00, 0.00, 0.00, 0.00, 0.00, 0.000, 0.000, 0.000, 11:10:17.573, 1561475417573
143, -34351.75, 0.00, 0.00, 0.00, 0.00, 0.00, 0.00, 0.00, 0.000, 0.000, 0.000, 11:10:17.573, 1561475417573
144, -34784.70, 0.00, 0.00, 0.00, 0.00, 0.00, 0.00, 0.00, 0.000, 0.000, 0.000, 11:10:17.573, 1561475417573
145, -35331.56, 0.00, 0.00, 0.00, 0.00, 0.00, 0.00, 0.00, 0.000, 0.000, 0.000, 11:10:17.573, 1561475417573
146, -34979.05, 0.00, 0.00, 0.00, 0.00, 0.00, 0.00, 0.00, 0.000, 0.000, 0.000, 11:10:17.573, 1561475417573
147, -34432.77, 0.00, 0.00, 0.00, 0.00, 0.00, 0.00, 0.00, 0.000, 0.000, 0.000, 11:10:17.574, 1561475417574
148, -34689.91, 0.00, 0.00, 0.00, 0.00, 0.00, 0.00, 0.00, 0.000, 0.000, 0.000, 11:10:17.574, 1561475417574
149, -35265.64, 0.00, 0.00, 0.00, 0.00, 0.00, 0.00, 0.00, 0.000, 0.000, 0.000, 11:10:17.574, 1561475417574
150, -35043.38, 0.00, 0.00, 0.00, 0.00, 0.00, 0.00, 0.00, 0.000, 0.000, 0.000, 11:10:17.574, 1561475417574
151, -34431.57, 0.00, 0.00, 0.00, 0.00, 0.00, 0.00, 0.00, 0.090, -0.056, 1.024, 11:10:17.574, 1561475417574
152, -34594.15, 0.00, 0.00, 0.00, 0.00, 0.00, 0.00, 0.00, 0.000, 0.000, 0.000, 11:10:17.574, 1561475417574
153, -35241.86, 0.00, 0.00, 0.00, 0.00, 0.00, 0.00, 0.00, 0.000, 0.000, 0.000, 11:10:17.574, 1561475417574
154, -35200.13, 0.00, 0.00, 0.00, 0.00, 0.00, 0.00, 0.00, 0.000, 0.000, 0.000, 11:10:17.574, 1561475417574
155, -34549.54, 0.00, 0.00, 0.00, 0.00, 0.00, 0.00, 0.00, 0.000, 0.000, 0.000, 11:10:17.575, 1561475417575
156, -34504.43, 0.00, 0.00, 0.00, 0.00, 0.00, 0.00, 0.00, 0.000, 0.000, 0.000, 11:10:17.575, 1561475417575
157, -35121.09, 0.00, 0.00, 0.00, 0.00, 0.00, 0.00, 0.00, 0.000, 0.000, 0.000, 11:10:17.575, 1561475417575
158, -35210.32, 0.00, 0.00, 0.00, 0.00, 0.00, 0.00, 0.00, 0.000, 0.000, 0.000, 11:10:17.575, 1561475417575
159, -34627.23, 0.00, 0.00, 0.00, 0.00, 0.00, 0.00, 0.00, 0.000, 0.000, 0.000, 11:10:17.575, 1561475417575
160, -34462.43, 0.00, 0.00, 0.00, 0.00, 0.00, 0.00, 0.00, 0.000, 0.000, 0.000, 11:10:17.575, 1561475417575
161, -35027.20, 0.00, 0.00, 0.00, 0.00, 0.00, 0.00, 0.00, 0.092, -0.048, 1.022, 11:10:17.575, 1561475417575
162, -35272.32, 0.00, 0.00, 0.00, 0.00, 0.00, 0.00, 0.00, 0.000, 0.000, 0.000, 11:10:17.575, 1561475417575
163, -34723.16, 0.00, 0.00, 0.00, 0.00, 0.00, 0.00, 0.00, 0.000, 0.000, 0.000, 11:10:17.575, 1561475417575
164, -34400.90, 0.00, 0.00, 0.00, 0.00, 0.00, 0.00, 0.00, 0.000, 0.000, 0.000, 11:10:17.575, 1561475417575
165, -34897.98, 0.00, 0.00, 0.00, 0.00, 0.00, 0.00, 0.00, 0.000, 0.000, 0.000, 11:10:17.575, 1561475417575
166, -35280.82, 0.00, 0.00, 0.00, 0.00, 0.00, 0.00, 0.00, 0.000, 0.000, 0.000, 11:10:17.575, 1561475417575
167, -34818.68, 0.00, 0.00, 0.00, 0.00, 0.00, 0.00, 0.00, 0.000, 0.000, 0.000, 11:10:17.575, 1561475417575
168, -34379.30, 0.00, 0.00, 0.00, 0.00, 0.00, 0.00, 0.00, 0.000, 0.000, 0.000, 11:10:17.575, 1561475417575
169, -34780.48, 0.00, 0.00, 0.00, 0.00, 0.00, 0.00, 0.00, 0.000, 0.000, 0.000, 11:10:17.576, 1561475417576
170, -35278.00, 0.00, 0.00, 0.00, 0.00, 0.00, 0.00, 0.00, 0.000, 0.000, 0.000, 11:10:17.576, 1561475417576
171, -34966.80, 0.00, 0.00, 0.00, 0.00, 0.00, 0.00, 0.00, 0.094, -0.048, 1.026, 11:10:17.576, 1561475417576
172, -34422.80, 0.00, 0.00, 0.00, 0.00, 0.00, 0.00, 0.00, 0.000, 0.000, 0.000, 11:10:17.576, 1561475417576
173, -34681.68, 0.00, 0.00, 0.00, 0.00, 0.00, 0.00, 0.00, 0.000, 0.000, 0.000, 11:10:17.576, 1561475417576
174, -35253.64, 0.00, 0.00, 0.00, 0.00, 0.00, 0.00, 0.00, 0.000, 0.000, 0.000, 11:10:17.576, 1561475417576
175, -35035.82, 0.00, 0.00, 0.00, 0.00, 0.00, 0.00, 0.00, 0.000, 0.000, 0.000, 11:10:17.576, 1561475417576
176, -34454.59, 0.00, 0.00, 0.00, 0.00, 0.00, 0.00, 0.00, 0.000, 0.000, 0.000, 11:10:17.576, 1561475417576
177, -34593.95, 0.00, 0.00, 0.00, 0.00, 0.00, 0.00, 0.00, 0.000, 0.000, 0.000, 11:10:17.576, 1561475417576
178, -35188.46, 0.00, 0.00, 0.00, 0.00, 0.00, 0.00, 0.00, 0.000, 0.000, 0.000, 11:10:17.576, 1561475417576
179, -35135.73, 0.00, 0.00, 0.00, 0.00, 0.00, 0.00, 0.00, 0.000, 0.000, 0.000, 11:10:17.576, 1561475417576
180, -34502.09, 0.00, 0.00, 0.00, 0.00, 0.00, 0.00, 0.00, 0.000, 0.000, 0.000, 11:10:17.576, 1561475417576
181, -34470.17, 0.00, 0.00, 0.00, 0.00, 0.00, 0.00, 0.00, 0.090, -0.048, 1.028, 11:10:17.576, 1561475417576
182, -35102.36, 0.00, 0.00, 0.00, 0.00, 0.00, 0.00, 0.00, 0.000, 0.000, 0.000, 11:10:17.576, 1561475417576
183, -35227.36, 0.00, 0.00, 0.00, 0.00, 0.00, 0.00, 0.00, 0.000, 0.000, 0.000, 11:10:17.576, 1561475417576
184, -34616.77, 0.00, 0.00, 0.00, 0.00, 0.00, 0.00, 0.00, 0.000, 0.000, 0.000, 11:10:17.576, 1561475417576
185, -34412.34, 0.00, 0.00, 0.00, 0.00, 0.00, 0.00, 0.00, 0.000, 0.000, 0.000, 11:10:17.576, 1561475417576
186, -34990.38, 0.00, 0.00, 0.00, 0.00, 0.00, 0.00, 0.00, 0.000, 0.000, 0.000, 11:10:17.576, 1561475417576
187, -35250.02, 0.00, 0.00, 0.00, 0.00, 0.00, 0.00, 0.00, 0.000, 0.000, 0.000, 11:10:17.576, 1561475417576
188, -34721.15, 0.00, 0.00, 0.00, 0.00, 0.00, 0.00, 0.00, 0.000, 0.000, 0.000, 11:10:17.576, 1561475417576
189, -34374.52, 0.00, 0.00, 0.00, 0.00, 0.00, 0.00, 0.00, 0.000, 0.000, 0.000, 11:10:17.576, 1561475417576
190, -34863.02, 0.00, 0.00, 0.00, 0.00, 0.00, 0.00, 0.00, 0.000, 0.000, 0.000, 11:10:17.576, 1561475417576
191, -35273.71, 0.00, 0.00, 0.00, 0.00, 0.00, 0.00, 0.00, 0.088, -0.046, 1.030, 11:10:17.577, 1561475417577
192, -34809.55, 0.00, 0.00, 0.00, 0.00, 0.00, 0.00, 0.00, 0.000, 0.000, 0.000, 11:10:17.577, 1561475417577
193, -34350.36, 0.00, 0.00, 0.00, 0.00, 0.00, 0.00, 0.00, 0.000, 0.000, 0.000, 11:10:17.577, 1561475417577
194, -34783.49, 0.00, 0.00, 0.00, 0.00, 0.00, 0.00, 0.00, 0.000, 0.000, 0.000, 11:10:17.577, 1561475417577
195, -35304.16, 0.00, 0.00, 0.00, 0.00, 0.00, 0.00, 0.00, 0.000, 0.000, 0.000, 11:10:17.577, 1561475417577
196, -34979.56, 0.00, 0.00, 0.00, 0.00, 0.00, 0.00, 0.00, 0.000, 0.000, 0.000, 11:10:17.577, 1561475417577
197, -34411.40, 0.00, 0.00, 0.00, 0.00, 0.00, 0.00, 0.00, 0.000, 0.000, 0.000, 11:10:17.577, 1561475417577
198, -34687.18, 0.00, 0.00, 0.00, 0.00, 0.00, 0.00, 0.00, 0.000, 0.000, 0.000, 11:10:17.577, 1561475417577
199, -35246.40, 0.00, 0.00, 0.00, 0.00, 0.00, 0.00, 0.00, 0.000, 0.000, 0.000, 11:10:17.577, 1561475417577
200, -35078.31, 0.00, 0.00, 0.00, 0.00, 0.00, 0.00, 0.00, 0.000, 0.000, 0.000, 11:10:17.577, 1561475417577
201, -34493.30, 0.00, 0.00, 0.00, 0.00, 0.00, 0.00, 0.00, 0.086, -0.046, 1.032, 11:10:17.577, 1561475417577
202, -34600.99, 0.00, 0.00, 0.00, 0.00, 0.00, 0.00, 0.00, 0.000, 0.000, 0.000, 11:10:17.577, 1561475417577
203, -35198.45, 0.00, 0.00, 0.00, 0.00, 0.00, 0.00, 0.00, 0.000, 0.000, 0.000, 11:10:17.577, 1561475417577
204, -35122.01, 0.00, 0.00, 0.00, 0.00, 0.00, 0.00, 0.00, 0.000, 0.000, 0.000, 11:10:17.577, 1561475417577
205, -34482.28, 0.00, 0.00, 0.00, 0.00, 0.00, 0.00, 0.00, 0.000, 0.000, 0.000, 11:10:17.577, 1561475417577
206, -34483.46, 0.00, 0.00, 0.00, 0.00, 0.00, 0.00, 0.00, 0.000, 0.000, 0.000, 11:10:17.577, 1561475417577
207, -35098.07, 0.00, 0.00, 0.00, 0.00, 0.00, 0.00, 0.00, 0.000, 0.000, 0.000, 11:10:17.577, 1561475417577
208, -35220.02, 0.00, 0.00, 0.00, 0.00, 0.00, 0.00, 0.00, 0.000, 0.000, 0.000, 11:10:17.577, 1561475417577
209, -34630.09, 0.00, 0.00, 0.00, 0.00, 0.00, 0.00, 0.00, 0.000, 0.000, 0.000, 11:10:17.577, 1561475417577
210, -34431.25, 0.00, 0.00, 0.00, 0.00, 0.00, 0.00, 0.00, 0.000, 0.000, 0.000, 11:10:17.577, 1561475417577
211, -35015.53, 0.00, 0.00, 0.00, 0.00, 0.00, 0.00, 0.00, 0.000, 0.000, 0.000, 11:10:17.577, 1561475417577
212, -35266.00, 0.00, 0.00, 0.00, 0.00, 0.00, 0.00, 0.00, 0.090, -0.042, 1.024, 11:10:17.578, 1561475417578
213, -34712.46, 0.00, 0.00, 0.00, 0.00, 0.00, 0.00, 0.00, 0.000, 0.000, 0.000, 11:10:17.578, 1561475417578
214, -34364.18, 0.00, 0.00, 0.00, 0.00, 0.00, 0.00, 0.00, 0.000, 0.000, 0.000, 11:10:17.578, 1561475417578
215, -34888.79, 0.00, 0.00, 0.00, 0.00, 0.00, 0.00, 0.00, 0.000, 0.000, 0.000, 11:10:17.578, 1561475417578
216, -35285.94, 0.00, 0.00, 0.00, 0.00, 0.00, 0.00, 0.00, 0.000, 0.000, 0.000, 11:10:17.578, 1561475417578
217, -34802.29, 0.00, 0.00, 0.00, 0.00, 0.00, 0.00, 0.00, 0.000, 0.000, 0.000, 11:10:17.578, 1561475417578
218, -34343.05, 0.00, 0.00, 0.00, 0.00, 0.00, 0.00, 0.00, 0.000, 0.000, 0.000, 11:10:17.578, 1561475417578
219, -34750.46, 0.00, 0.00, 0.00, 0.00, 0.00, 0.00, 0.00, 0.000, 0.000, 0.000, 11:10:17.578, 1561475417578
220, -35249.10, 0.00, 0.00, 0.00, 0.00, 0.00, 0.00, 0.00, 0.000, 0.000, 0.000, 11:10:17.578, 1561475417578
221, -34897.80, 0.00, 0.00, 0.00, 0.00, 0.00, 0.00, 0.00, 0.000, 0.000, 0.000, 11:10:17.578, 1561475417578
222, -34360.57, 0.00, 0.00, 0.00, 0.00, 0.00, 0.00, 0.00, 0.086, -0.046, 1.032, 11:10:17.578, 1561475417578
223, -34681.08, 0.00, 0.00, 0.00, 0.00, 0.00, 0.00, 0.00, 0.000, 0.000, 0.000, 11:10:17.578, 1561475417578
224, -35267.65, 0.00, 0.00, 0.00, 0.00, 0.00, 0.00, 0.00, 0.000, 0.000, 0.000, 11:10:17.578, 1561475417578
225, -35038.71, 0.00, 0.00, 0.00, 0.00, 0.00, 0.00, 0.00, 0.000, 0.000, 0.000, 11:10:17.578, 1561475417578
226, -34437.80, 0.00, 0.00, 0.00, 0.00, 0.00, 0.00, 0.00, 0.000, 0.000, 0.000, 11:10:17.578, 1561475417578
227, -34544.53, 0.00, 0.00, 0.00, 0.00, 0.00, 0.00, 0.00, 0.000, 0.000, 0.000, 11:10:17.578, 1561475417578
228, -35163.00, 0.00, 0.00, 0.00, 0.00, 0.00, 0.00, 0.00, 0.000, 0.000, 0.000, 11:10:17.578, 1561475417578
229, -35119.66, 0.00, 0.00, 0.00, 0.00, 0.00, 0.00, 0.00, 0.000, 0.000, 0.000, 11:10:17.578, 1561475417578
230, -34527.34, 0.00, 0.00, 0.00, 0.00, 0.00, 0.00, 0.00, 0.000, 0.000, 0.000, 11:10:17.578, 1561475417578
231, -34490.11, 0.00, 0.00, 0.00, 0.00, 0.00, 0.00, 0.00, 0.000, 0.000, 0.000, 11:10:17.578, 1561475417578
232, -35073.82, 0.00, 0.00, 0.00, 0.00, 0.00, 0.00, 0.00, 0.090, -0.042, 1.024, 11:10:17.578, 1561475417578
233, -35172.93, 0.00, 0.00, 0.00, 0.00, 0.00, 0.00, 0.00, 0.000, 0.000, 0.000, 11:10:17.578, 1561475417578
234, -34605.37, 0.00, 0.00, 0.00, 0.00, 0.00, 0.00, 0.00, 0.000, 0.000, 0.000, 11:10:17.579, 1561475417579
235, -34419.54, 0.00, 0.00, 0.00, 0.00, 0.00, 0.00, 0.00, 0.000, 0.000, 0.000, 11:10:17.579, 1561475417579
236, -34983.27, 0.00, 0.00, 0.00, 0.00, 0.00, 0.00, 0.00, 0.000, 0.000, 0.000, 11:10:17.579, 1561475417579
237, -35231.04, 0.00, 0.00, 0.00, 0.00, 0.00, 0.00, 0.00, 0.000, 0.000, 0.000, 11:10:17.579, 1561475417579
238, -34685.91, 0.00, 0.00, 0.00, 0.00, 0.00, 0.00, 0.00, 0.000, 0.000, 0.000, 11:10:17.579, 1561475417579
239, -34363.50, 0.00, 0.00, 0.00, 0.00, 0.00, 0.00, 0.00, 0.000, 0.000, 0.000, 11:10:17.579, 1561475417579
240, -34893.62, 0.00, 0.00, 0.00, 0.00, 0.00, 0.00, 0.00, 0.000, 0.000, 0.000, 11:10:17.579, 1561475417579
241, -35297.65, 0.00, 0.00, 0.00, 0.00, 0.00, 0.00, 0.00, 0.000, 0.000, 0.000, 11:10:18.053, 1561475418053
242, -34829.67, 0.00, 0.00, 0.00, 0.00, 0.00, 0.00, 0.00, 0.084, -0.048, 1.022, 11:10:18.053, 1561475418053
243, -34352.33, 0.00, 0.00, 0.00, 0.00, 0.00, 0.00, 0.00, 0.000, 0.000, 0.000, 11:10:18.053, 1561475418053
244, -34733.74, 0.00, 0.00, 0.00, 0.00, 0.00, 0.00, 0.00, 0.000, 0.000, 0.000, 11:10:18.053, 1561475418053
245, -35224.58, 0.00, 0.00, 0.00, 0.00, 0.00, 0.00, 0.00, 0.000, 0.000, 0.000, 11:10:18.053, 1561475418053
246, -34908.84, 0.00, 0.00, 0.00, 0.00, 0.00, 0.00, 0.00, 0.000, 0.000, 0.000, 11:10:18.053, 1561475418053
247, -34379.98, 0.00, 0.00, 0.00, 0.00, 0.00, 0.00, 0.00, 0.000, 0.000, 0.000, 11:10:18.053, 1561475418053
248, -34656.69, 0.00, 0.00, 0.00, 0.00, 0.00, 0.00, 0.00, 0.000, 0.000, 0.000, 11:10:18.053, 1561475418053
249, -35252.70, 0.00, 0.00, 0.00, 0.00, 0.00, 0.00, 0.00, 0.000, 0.000, 0.000, 11:10:18.053, 1561475418053
250, -35051.25, 0.00, 0.00, 0.00, 0.00, 0.00, 0.00, 0.00, 0.000, 0.000, 0.000, 11:10:18.053, 1561475418053
251, -34447.88, 0.00, 0.00, 0.00, 0.00, 0.00, 0.00, 0.00, 0.000, 0.000, 0.000, 11:10:18.053, 1561475418053
252, -34576.67, 0.00, 0.00, 0.00, 0.00, 0.00, 0.00, 0.00, 0.082, -0.044, 1.026, 11:10:18.053, 1561475418053
253, -35169.35, 0.00, 0.00, 0.00, 0.00, 0.00, 0.00, 0.00, 0.000, 0.000, 0.000, 11:10:18.053, 1561475418053
254, -35114.39, 0.00, 0.00, 0.00, 0.00, 0.00, 0.00, 0.00, 0.000, 0.000, 0.000, 11:10:18.054, 1561475418054
255, -34495.71, 0.00, 0.00, 0.00, 0.00, 0.00, 0.00, 0.00, 0.000, 0.000, 0.000, 11:10:18.054, 1561475418054
0, -34465.70, 0.00, 0.00, 0.00, 0.00, 0.00, 0.00, 0.00, 0.000, 0.000, 0.000, 11:10:18.054, 1561475418054
1, -35087.14, 0.00, 0.00, 0.00, 0.00, 0.00, 0.00, 0.00, 0.000, 0.000, 0.000, 11:10:18.054, 1561475418054
2, -35205.47, 0.00, 0.00, 0.00, 0.00, 0.00, 0.00, 0.00, 0.000, 0.000, 0.000, 11:10:18.054, 1561475418054
3, -34597.08, 0.00, 0.00, 0.00, 0.00, 0.00, 0.00, 0.00, 0.000, 0.000, 0.000, 11:10:18.054, 1561475418054
4, -34415.79, 0.00, 0.00, 0.00, 0.00, 0.00, 0.00, 0.00, 0.000, 0.000, 0.000, 11:10:18.054, 1561475418054
5, -34994.47, 0.00, 0.00, 0.00, 0.00, 0.00, 0.00, 0.00, 0.000, 0.000, 0.000, 11:10:18.054, 1561475418054
6, -35264.66, 0.00, 0.00, 0.00, 0.00, 0.00, 0.00, 0.00, 0.000, 0.000, 0.000, 11:10:18.054, 1561475418054
7, -34691.52, 0.00, 0.00, 0.00, 0.00, 0.00, 0.00, 0.00, 0.084, -0.046, 1.028, 11:10:18.054, 1561475418054
8, -34353.31, 0.00, 0.00, 0.00, 0.00, 0.00, 0.00, 0.00, 0.000, 0.000, 0.000, 11:10:18.054, 1561475418054
9, -34869.41, 0.00, 0.00, 0.00, 0.00, 0.00, 0.00, 0.00, 0.000, 0.000, 0.000, 11:10:18.054, 1561475418054
10, -35280.98, 0.00, 0.00, 0.00, 0.00, 0.00, 0.00, 0.00, 0.000, 0.000, 0.000, 11:10:18.054, 1561475418054
11, -34853.10, 0.00, 0.00, 0.00, 0.00, 0.00, 0.00, 0.00, 0.000, 0.000, 0.000, 11:10:18.054, 1561475418054
12, -34395.02, 0.00, 0.00, 0.00, 0.00, 0.00, 0.00, 0.00, 0.000, 0.000, 0.000, 11:10:18.054, 1561475418054
13, -34785.10, 0.00, 0.00, 0.00, 0.00, 0.00, 0.00, 0.00, 0.000, 0.000, 0.000, 11:10:18.054, 1561475418054
14, -35282.96, 0.00, 0.00, 0.00, 0.00, 0.00, 0.00, 0.00, 0.000, 0.000, 0.000, 11:10:18.055, 1561475418055
15, -34947.89, 0.00, 0.00, 0.00, 0.00, 0.00, 0.00, 0.00, 0.000, 0.000, 0.000, 11:10:18.055, 1561475418055
16, -34419.88, 0.00, 0.00, 0.00, 0.00, 0.00, 0.00, 0.00, 0.000, 0.000, 0.000, 11:10:18.055, 1561475418055
17, -34685.48, 0.00, 0.00, 0.00, 0.00, 0.00, 0.00, 0.00, 0.084, -0.050, 1.020, 11:10:18.055, 1561475418055
18, -35255.34, 0.00, 0.00, 0.00, 0.00, 0.00, 0.00, 0.00, 0.000, 0.000, 0.000, 11:10:18.055, 1561475418055
19, -35019.64, 0.00, 0.00, 0.00, 0.00, 0.00, 0.00, 0.00, 0.000, 0.000, 0.000, 11:10:18.055, 1561475418055
20, -34435.27, 0.00, 0.00, 0.00, 0.00, 0.00, 0.00, 0.00, 0.000, 0.000, 0.000, 11:10:18.055, 1561475418055
21, -34570.46, 0.00, 0.00, 0.00, 0.00, 0.00, 0.00, 0.00, 0.000, 0.000, 0.000, 11:10:18.055, 1561475418055
22, -35173.69, 0.00, 0.00, 0.00, 0.00, 0.00, 0.00, 0.00, 0.000, 0.000, 0.000, 11:10:18.056, 1561475418056
23, -35101.38, 0.00, 0.00, 0.00, 0.00, 0.00, 0.00, 0.00, 0.000, 0.000, 0.000, 11:10:18.056, 1561475418056
24, -34503.87, 0.00, 0.00, 0.00, 0.00, 0.00, 0.00, 0.00, 0.000, 0.000, 0.000, 11:10:18.056, 1561475418056
25, -34471.95, 0.00, 0.00, 0.00, 0.00, 0.00, 0.00, 0.00, 0.000, 0.000, 0.000, 11:10:18.056, 1561475418056
26, -35078.56, 0.00, 0.00, 0.00, 0.00, 0.00, 0.00, 0.00, 0.000, 0.000, 0.000, 11:10:18.056, 1561475418056
27, -35168.84, 0.00, 0.00, 0.00, 0.00, 0.00, 0.00, 0.00, 0.086, -0.048, 1.028, 11:10:18.056, 1561475418056
28, -34573.25, 0.00, 0.00, 0.00, 0.00, 0.00, 0.00, 0.00, 0.000, 0.000, 0.000, 11:10:18.056, 1561475418056
29, -34384.49, 0.00, 0.00, 0.00, 0.00, 0.00, 0.00, 0.00, 0.000, 0.000, 0.000, 11:10:18.056, 1561475418056
30, -35002.45, 0.00, 0.00, 0.00, 0.00, 0.00, 0.00, 0.00, 0.000, 0.000, 0.000, 11:10:18.057, 1561475418057
31, -35244.65, 0.00, 0.00, 0.00, 0.00, 0.00, 0.00, 0.00, 0.000, 0.000, 0.000, 11:10:18.057, 1561475418057
32, -34701.93, 0.00, 0.00, 0.00, 0.00, 0.00, 0.00, 0.00, 0.000, 0.000, 0.000, 11:10:18.057, 1561475418057
33, -34354.23, 0.00, 0.00, 0.00, 0.00, 0.00, 0.00, 0.00, 0.000, 0.000, 0.000, 11:10:18.057, 1561475418057
34, -34845.41, 0.00, 0.00, 0.00, 0.00, 0.00, 0.00, 0.00, 0.000, 0.000, 0.000, 11:10:18.057, 1561475418057
35, -35238.80, 0.00, 0.00, 0.00, 0.00, 0.00, 0.00, 0.00, 0.000, 0.000, 0.000, 11:10:18.057, 1561475418057
36, -34791.38, 0.00, 0.00, 0.00, 0.00, 0.00, 0.00, 0.00, 0.000, 0.000, 0.000, 11:10:18.057, 1561475418057
37, -34344.50, 0.00, 0.00, 0.00, 0.00, 0.00, 0.00, 0.00, 0.086, -0.046, 1.028, 11:10:18.057, 1561475418057
38, -34778.66, 0.00, 0.00, 0.00, 0.00, 0.00, 0.00, 0.00, 0.000, 0.000, 0.000, 11:10:18.057, 1561475418057
39, -35278.41, 0.00, 0.00, 0.00, 0.00, 0.00, 0.00, 0.00, 0.000, 0.000, 0.000, 11:10:18.057, 1561475418057
40, -34917.58, 0.00, 0.00, 0.00, 0.00, 0.00, 0.00, 0.00, 0.000, 0.000, 0.000, 11:10:18.057, 1561475418057
41, -34370.81, 0.00, 0.00, 0.00, 0.00, 0.00, 0.00, 0.00, 0.000, 0.000, 0.000, 11:10:18.057, 1561475418057
42, -34662.77, 0.00, 0.00, 0.00, 0.00, 0.00, 0.00, 0.00, 0.000, 0.000, 0.000, 11:10:18.057, 1561475418057
43, -35240.27, 0.00, 0.00, 0.00, 0.00, 0.00, 0.00, 0.00, 0.000, 0.000, 0.000, 11:10:18.058, 1561475418058
44, -35005.25, 0.00, 0.00, 0.00, 0.00, 0.00, 0.00, 0.00, 0.000, 0.000, 0.000, 11:10:18.058, 1561475418058
45, -34412.99, 0.00, 0.00, 0.00, 0.00, 0.00, 0.00, 0.00, 0.000, 0.000, 0.000, 11:10:18.058, 1561475418058
46, -34540.62, 0.00, 0.00, 0.00, 0.00, 0.00, 0.00, 0.00, 0.000, 0.000, 0.000, 11:10:18.058, 1561475418058
47, -35158.55, 0.00, 0.00, 0.00, 0.00, 0.00, 0.00, 0.00, 0.084, -0.046, 1.026, 11:10:18.058, 1561475418058
48, -35098.25, 0.00, 0.00, 0.00, 0.00, 0.00, 0.00, 0.00, 0.000, 0.000, 0.000, 11:10:18.058, 1561475418058
49, -34482.44, 0.00, 0.00, 0.00, 0.00, 0.00, 0.00, 0.00, 0.000, 0.000, 0.000, 11:10:18.058, 1561475418058
50, -34447.25, 0.00, 0.00, 0.00, 0.00, 0.00, 0.00, 0.00, 0.000, 0.000, 0.000, 11:10:18.058, 1561475418058
51, -35048.85, 0.00, 0.00, 0.00, 0.00, 0.00, 0.00, 0.00, 0.000, 0.000, 0.000, 11:10:18.058, 1561475418058
52, -35132.05, 0.00, 0.00, 0.00, 0.00, 0.00, 0.00, 0.00, 0.000, 0.000, 0.000, 11:10:18.058, 1561475418058
53, -34575.49, 0.00, 0.00, 0.00, 0.00, 0.00, 0.00, 0.00, 0.000, 0.000, 0.000, 11:10:18.058, 1561475418058
54, -34411.29, 0.00, 0.00, 0.00, 0.00, 0.00, 0.00, 0.00, 0.000, 0.000, 0.000, 11:10:18.058, 1561475418058
55, -34980.25, 0.00, 0.00, 0.00, 0.00, 0.00, 0.00, 0.00, 0.000, 0.000, 0.000, 11:10:18.058, 1561475418058
56, -35232.94, 0.00, 0.00, 0.00, 0.00, 0.00, 0.00, 0.00, 0.000, 0.000, 0.000, 11:10:18.059, 1561475418059
57, -34690.18, 0.00, 0.00, 0.00, 0.00, 0.00, 0.00, 0.00, 0.084, -0.046, 1.028, 11:10:18.059, 1561475418059
58, -34345.53, 0.00, 0.00, 0.00, 0.00, 0.00, 0.00, 0.00, 0.000, 0.000, 0.000, 11:10:18.059, 1561475418059
59, -34882.73, 0.00, 0.00, 0.00, 0.00, 0.00, 0.00, 0.00, 0.000, 0.000, 0.000, 11:10:18.059, 1561475418059
60, -35277.51, 0.00, 0.00, 0.00, 0.00, 0.00, 0.00, 0.00, 0.000, 0.000, 0.000, 11:10:18.059, 1561475418059
61, -34776.41, 0.00, 0.00, 0.00, 0.00, 0.00, 0.00, 0.00, 0.000, 0.000, 0.000, 11:10:18.059, 1561475418059
62, -34310.87, 0.00, 0.00, 0.00, 0.00, 0.00, 0.00, 0.00, 0.000, 0.000, 0.000, 11:10:18.059, 1561475418059
63, -34734.23, 0.00, 0.00, 0.00, 0.00, 0.00, 0.00, 0.00, 0.000, 0.000, 0.000, 11:10:18.059, 1561475418059
64, -35258.80, 0.00, 0.00, 0.00, 0.00, 0.00, 0.00, 0.00, 0.000, 0.000, 0.000, 11:10:18.059, 1561475418059
65, -34935.69, 0.00, 0.00, 0.00, 0.00, 0.00, 0.00, 0.00, 0.000, 0.000, 0.000, 11:10:18.060, 1561475418060
66, -34387.02, 0.00, 0.00, 0.00, 0.00, 0.00, 0.00, 0.00, 0.000, 0.000, 0.000, 11:10:18.060, 1561475418060
67, -34655.84, 0.00, 0.00, 0.00, 0.00, 0.00, 0.00, 0.00, 0.000, 0.000, 0.000, 11:10:18.060, 1561475418060
68, -35218.79, 0.00, 0.00, 0.00, 0.00, 0.00, 0.00, 0.00, 0.082, -0.048, 1.024, 11:10:18.060, 1561475418060
69, -35009.74, 0.00, 0.00, 0.00, 0.00, 0.00, 0.00, 0.00, 0.000, 0.000, 0.000, 11:10:18.060, 1561475418060
70, -34445.07, 0.00, 0.00, 0.00, 0.00, 0.00, 0.00, 0.00, 0.000, 0.000, 0.000, 11:10:18.060, 1561475418060
71, -34543.14, 0.00, 0.00, 0.00, 0.00, 0.00, 0.00, 0.00, 0.000, 0.000, 0.000, 11:10:18.060, 1561475418060
72, -35124.16, 0.00, 0.00, 0.00, 0.00, 0.00, 0.00, 0.00, 0.000, 0.000, 0.000, 11:10:18.060, 1561475418060
73, -35085.62, 0.00, 0.00, 0.00, 0.00, 0.00, 0.00, 0.00, 0.000, 0.000, 0.000, 11:10:18.060, 1561475418060
74, -34476.87, 0.00, 0.00, 0.00, 0.00, 0.00, 0.00, 0.00, 0.000, 0.000, 0.000, 11:10:18.060, 1561475418060
75, -34426.51, 0.00, 0.00, 0.00, 0.00, 0.00, 0.00, 0.00, 0.000, 0.000, 0.000, 11:10:18.060, 1561475418060
76, -35061.26, 0.00, 0.00, 0.00, 0.00, 0.00, 0.00, 0.00, 0.000, 0.000, 0.000, 11:10:18.060, 1561475418060
77, -35161.39, 0.00, 0.00, 0.00, 0.00, 0.00, 0.00, 0.00, 0.000, 0.000, 0.000, 11:10:18.060, 1561475418060
78, -34576.63, 0.00, 0.00, 0.00, 0.00, 0.00, 0.00, 0.00, 0.086, -0.052, 1.030, 11:10:18.061, 1561475418061
79, -34368.27, 0.00, 0.00, 0.00, 0.00, 0.00, 0.00, 0.00, 0.000, 0.000, 0.000, 11:10:18.061, 1561475418061
80, -34954.33, 0.00, 0.00, 0.00, 0.00, 0.00, 0.00, 0.00, 0.000, 0.000, 0.000, 11:10:18.061, 1561475418061
81, -35227.15, 0.00, 0.00, 0.00, 0.00, 0.00, 0.00, 0.00, 0.000, 0.000, 0.000, 11:10:18.061, 1561475418061
82, -34667.11, 0.00, 0.00, 0.00, 0.00, 0.00, 0.00, 0.00, 0.000, 0.000, 0.000, 11:10:18.061, 1561475418061
83, -34358.36, 0.00, 0.00, 0.00, 0.00, 0.00, 0.00, 0.00, 0.000, 0.000, 0.000, 11:10:18.061, 1561475418061
84, -34860.45, 0.00, 0.00, 0.00, 0.00, 0.00, 0.00, 0.00, 0.000, 0.000, 0.000, 11:10:18.061, 1561475418061
85, -35256.88, 0.00, 0.00, 0.00, 0.00, 0.00, 0.00, 0.00, 0.000, 0.000, 0.000, 11:10:18.061, 1561475418061
86, -34788.86, 0.00, 0.00, 0.00, 0.00, 0.00, 0.00, 0.00, 0.000, 0.000, 0.000, 11:10:18.061, 1561475418061
87, -34335.83, 0.00, 0.00, 0.00, 0.00, 0.00, 0.00, 0.00, 0.000, 0.000, 0.000, 11:10:18.061, 1561475418061
88, -34726.52, 0.00, 0.00, 0.00, 0.00, 0.00, 0.00, 0.00, 0.090, -0.046, 1.030, 11:10:18.061, 1561475418061
89, -35243.63, 0.00, 0.00, 0.00, 0.00, 0.00, 0.00, 0.00, 0.000, 0.000, 0.000, 11:10:18.061, 1561475418061
90, -34911.01, 0.00, 0.00, 0.00, 0.00, 0.00, 0.00, 0.00, 0.000, 0.000, 0.000, 11:10:18.061, 1561475418061
91, -34354.43, 0.00, 0.00, 0.00, 0.00, 0.00, 0.00, 0.00, 0.000, 0.000, 0.000, 11:10:18.061, 1561475418061
92, -34645.76, 0.00, 0.00, 0.00, 0.00, 0.00, 0.00, 0.00, 0.000, 0.000, 0.000, 11:10:18.061, 1561475418061
93, -35221.30, 0.00, 0.00, 0.00, 0.00, 0.00, 0.00, 0.00, 0.000, 0.000, 0.000, 11:10:18.062, 1561475418062
94, -35024.89, 0.00, 0.00, 0.00, 0.00, 0.00, 0.00, 0.00, 0.000, 0.000, 0.000, 11:10:18.062, 1561475418062
95, -34448.42, 0.00, 0.00, 0.00, 0.00, 0.00, 0.00, 0.00, 0.000, 0.000, 0.000, 11:10:18.062, 1561475418062
96, -34533.80, 0.00, 0.00, 0.00, 0.00, 0.00, 0.00, 0.00, 0.000, 0.000, 0.000, 11:10:18.062, 1561475418062
97, -35154.02, 0.00, 0.00, 0.00, 0.00, 0.00, 0.00, 0.00, 0.000, 0.000, 0.000, 11:10:18.062, 1561475418062
98, -35139.71, 0.00, 0.00, 0.00, 0.00, 0.00, 0.00, 0.00, 0.092, -0.046, 1.026, 11:10:18.062, 1561475418062
99, -34513.59, 0.00, 0.00, 0.00, 0.00, 0.00, 0.00, 0.00, 0.000, 0.000, 0.000, 11:10:18.062, 1561475418062
100, -34470.17, 0.00, 0.00, 0.00, 0.00, 0.00, 0.00, 0.00, 0.000, 0.000, 0.000, 11:10:18.062, 1561475418062
101, -35024.87, 0.00, 0.00, 0.00, 0.00, 0.00, 0.00, 0.00, 0.000, 0.000, 0.000, 11:10:18.062, 1561475418062
102, -35138.71, 0.00, 0.00, 0.00, 0.00, 0.00, 0.00, 0.00, 0.000, 0.000, 0.000, 11:10:18.062, 1561475418062
103, -34593.70, 0.00, 0.00, 0.00, 0.00, 0.00, 0.00, 0.00, 0.000, 0.000, 0.000, 11:10:18.062, 1561475418062
104, -34327.52, 0.00, 0.00, 0.00, 0.00, 0.00, 0.00, 0.00, 0.000, 0.000, 0.000, 11:10:18.062, 1561475418062
105, -34840.45, 0.00, 0.00, 0.00, 0.00, 0.00, 0.00, 0.00, 0.000, 0.000, 0.000, 11:10:18.062, 1561475418062
106, -35143.40, 0.00, 0.00, 0.00, 0.00, 0.00, 0.00, 0.00, 0.000, 0.000, 0.000, 11:10:18.530, 1561475418530
107, -34699.85, 0.00, 0.00, 0.00, 0.00, 0.00, 0.00, 0.00, 0.000, 0.000, 0.000, 11:10:18.530, 1561475418530
108, -34448.84, 0.00, 0.00, 0.00, 0.00, 0.00, 0.00, 0.00, 0.086, -0.050, 1.032, 11:10:18.530, 1561475418530
109, -34907.55, 0.00, 0.00, 0.00, 0.00, 0.00, 0.00, 0.00, 0.000, 0.000, 0.000, 11:10:18.530, 1561475418530
110, -35352.61, 0.00, 0.00, 0.00, 0.00, 0.00, 0.00, 0.00, 0.000, 0.000, 0.000, 11:10:18.530, 1561475418530
111, -34889.06, 0.00, 0.00, 0.00, 0.00, 0.00, 0.00, 0.00, 0.000, 0.000, 0.000, 11:10:18.530, 1561475418530
112, -34371.71, 0.00, 0.00, 0.00, 0.00, 0.00, 0.00, 0.00, 0.000, 0.000, 0.000, 11:10:18.530, 1561475418530
113, -34774.22, 0.00, 0.00, 0.00, 0.00, 0.00, 0.00, 0.00, 0.000, 0.000, 0.000, 11:10:18.530, 1561475418530
114, -35279.52, 0.00, 0.00, 0.00, 0.00, 0.00, 0.00, 0.00, 0.000, 0.000, 0.000, 11:10:18.530, 1561475418530
115, -34975.34, 0.00, 0.00, 0.00, 0.00, 0.00, 0.00, 0.00, 0.000, 0.000, 0.000, 11:10:18.530, 1561475418530
116, -34411.40, 0.00, 0.00, 0.00, 0.00, 0.00, 0.00, 0.00, 0.000, 0.000, 0.000, 11:10:18.530, 1561475418530
117, -34603.18, 0.00, 0.00, 0.00, 0.00, 0.00, 0.00, 0.00, 0.000, 0.000, 0.000, 11:10:18.531, 1561475418531
118, -35220.89, 0.00, 0.00, 0.00, 0.00, 0.00, 0.00, 0.00, 0.088, -0.048, 1.036, 11:10:18.531, 1561475418531
119, -35049.03, 0.00, 0.00, 0.00, 0.00, 0.00, 0.00, 0.00, 0.000, 0.000, 0.000, 11:10:18.531, 1561475418531
120, -34466.03, 0.00, 0.00, 0.00, 0.00, 0.00, 0.00, 0.00, 0.000, 0.000, 0.000, 11:10:18.531, 1561475418531
121, -34591.02, 0.00, 0.00, 0.00, 0.00, 0.00, 0.00, 0.00, 0.000, 0.000, 0.000, 11:10:18.531, 1561475418531
122, -35224.89, 0.00, 0.00, 0.00, 0.00, 0.00, 0.00, 0.00, 0.000, 0.000, 0.000, 11:10:18.531, 1561475418531
123, -35151.61, 0.00, 0.00, 0.00, 0.00, 0.00, 0.00, 0.00, 0.000, 0.000, 0.000, 11:10:18.531, 1561475418531
124, -34566.55, 0.00, 0.00, 0.00, 0.00, 0.00, 0.00, 0.00, 0.000, 0.000, 0.000, 11:10:18.531, 1561475418531
125, -34595.43, 0.00, 0.00, 0.00, 0.00, 0.00, 0.00, 0.00, 0.000, 0.000, 0.000, 11:10:18.531, 1561475418531
126, -35076.93, 0.00, 0.00, 0.00, 0.00, 0.00, 0.00, 0.00, 0.000, 0.000, 0.000, 11:10:18.531, 1561475418531
127, -35250.04, 0.00, 0.00, 0.00, 0.00, 0.00, 0.00, 0.00, 0.000, 0.000, 0.000, 11:10:18.531, 1561475418531
128, -34715.32, 0.00, 0.00, 0.00, 0.00, 0.00, 0.00, 0.00, 0.000, 0.000, 0.000, 11:10:18.531, 1561475418531
129, -34482.48, 0.00, 0.00, 0.00, 0.00, 0.00, 0.00, 0.00, 0.084, -0.044, 1.032, 11:10:18.531, 1561475418531
130, -35032.27, 0.00, 0.00, 0.00, 0.00, 0.00, 0.00, 0.00, 0.000, 0.000, 0.000, 11:10:18.532, 1561475418532
131, -35320.27, 0.00, 0.00, 0.00, 0.00, 0.00, 0.00, 0.00, 0.000, 0.000, 0.000, 11:10:18.532, 1561475418532
132, -34819.12, 0.00, 0.00, 0.00, 0.00, 0.00, 0.00, 0.00, 0.000, 0.000, 0.000, 11:10:18.532, 1561475418532
133, -34449.80, 0.00, 0.00, 0.00, 0.00, 0.00, 0.00, 0.00, 0.000, 0.000, 0.000, 11:10:18.532, 1561475418532
134, -34932.56, 0.00, 0.00, 0.00, 0.00, 0.00, 0.00, 0.00, 0.000, 0.000, 0.000, 11:10:18.532, 1561475418532
135, -35311.44, 0.00, 0.00, 0.00, 0.00, 0.00, 0.00, 0.00, 0.000, 0.000, 0.000, 11:10:18.532, 1561475418532
136, -34843.42, 0.00, 0.00, 0.00, 0.00, 0.00, 0.00, 0.00, 0.000, 0.000, 0.000, 11:10:18.535, 1561475418535
137, -34376.51, 0.00, 0.00, 0.00, 0.00, 0.00, 0.00, 0.00, 0.000, 0.000, 0.000, 11:10:18.535, 1561475418535
138, -34848.69, 0.00, 0.00, 0.00, 0.00, 0.00, 0.00, 0.00, 0.000, 0.000, 0.000, 11:10:18.535, 1561475418535
139, -35397.43, 0.00, 0.00, 0.00, 0.00, 0.00, 0.00, 0.00, 0.084, -0.044, 1.028, 11:10:18.535, 1561475418535
140, -35068.86, 0.00, 0.00, 0.00, 0.00, 0.00, 0.00, 0.00, 0.000, 0.000, 0.000, 11:10:18.535, 1561475418535
141, -34498.78, 0.00, 0.00, 0.00, 0.00, 0.00, 0.00, 0.00, 0.000, 0.000, 0.000, 11:10:18.535, 1561475418535
142, -34788.30, 0.00, 0.00, 0.00, 0.00, 0.00, 0.00, 0.00, 0.000, 0.000, 0.000, 11:10:18.535, 1561475418535
143, -35327.76, 0.00, 0.00, 0.00, 0.00, 0.00, 0.00, 0.00, 0.000, 0.000, 0.000, 11:10:18.536, 1561475418536
144, -35173.06, 0.00, 0.00, 0.00, 0.00, 0.00, 0.00, 0.00, 0.000, 0.000, 0.000, 11:10:18.536, 1561475418536
145, -34565.47, 0.00, 0.00, 0.00, 0.00, 0.00, 0.00, 0.00, 0.000, 0.000, 0.000, 11:10:18.536, 1561475418536
146, -34553.54, 0.00, 0.00, 0.00, 0.00, 0.00, 0.00, 0.00, 0.000, 0.000, 0.000, 11:10:18.536, 1561475418536
147, -35180.68, 0.00, 0.00, 0.00, 0.00, 0.00, 0.00, 0.00, 0.000, 0.000, 0.000, 11:10:18.536, 1561475418536
148, -35223.24, 0.00, 0.00, 0.00, 0.00, 0.00, 0.00, 0.00, 0.000, 0.000, 0.000, 11:10:18.536, 1561475418536
149, -34647.82, 0.00, 0.00, 0.00, 0.00, 0.00, 0.00, 0.00, 0.082, -0.046, 1.036, 11:10:18.536, 1561475418536
150, -34589.93, 0.00, 0.00, 0.00, 0.00, 0.00, 0.00, 0.00, 0.000, 0.000, 0.000, 11:10:18.536, 1561475418536
151, -35207.77, 0.00, 0.00, 0.00, 0.00, 0.00, 0.00, 0.00, 0.000, 0.000, 0.000, 11:10:18.537, 1561475418537
152, -35365.27, 0.00, 0.00, 0.00, 0.00, 0.00, 0.00, 0.00, 0.000, 0.000, 0.000, 11:10:18.537, 1561475418537
153, -34784.50, 0.00, 0.00, 0.00, 0.00, 0.00, 0.00, 0.00, 0.000, 0.000, 0.000, 11:10:18.537, 1561475418537
154, -34519.99, 0.00, 0.00, 0.00, 0.00, 0.00, 0.00, 0.00, 0.000, 0.000, 0.000, 11:10:18.537, 1561475418537
155, -35116.27, 0.00, 0.00, 0.00, 0.00, 0.00, 0.00, 0.00, 0.000, 0.000, 0.000, 11:10:18.537, 1561475418537
156, -35407.64, 0.00, 0.00, 0.00, 0.00, 0.00, 0.00, 0.00, 0.000, 0.000, 0.000, 11:10:18.537, 1561475418537
157, -34866.35, 0.00, 0.00, 0.00, 0.00, 0.00, 0.00, 0.00, 0.000, 0.000, 0.000, 11:10:18.538, 1561475418538
158, -34476.11, 0.00, 0.00, 0.00, 0.00, 0.00, 0.00, 0.00, 0.000, 0.000, 0.000, 11:10:18.538, 1561475418538
159, -34933.56, 0.00, 0.00, 0.00, 0.00, 0.00, 0.00, 0.00, 0.086, -0.048, 1.028, 11:10:18.538, 1561475418538
160, -35396.60, 0.00, 0.00, 0.00, 0.00, 0.00, 0.00, 0.00, 0.000, 0.000, 0.000, 11:10:18.538, 1561475418538
161, -34969.39, 0.00, 0.00, 0.00, 0.00, 0.00, 0.00, 0.00, 0.000, 0.000, 0.000, 11:10:18.538, 1561475418538
162, -34455.93, 0.00, 0.00, 0.00, 0.00, 0.00, 0.00, 0.00, 0.000, 0.000, 0.000, 11:10:18.539, 1561475418539
163, -34834.32, 0.00, 0.00, 0.00, 0.00, 0.00, 0.00, 0.00, 0.000, 0.000, 0.000, 11:10:18.539, 1561475418539
164, -35355.30, 0.00, 0.00, 0.00, 0.00, 0.00, 0.00, 0.00, 0.000, 0.000, 0.000, 11:10:18.539, 1561475418539
165, -35032.43, 0.00, 0.00, 0.00, 0.00, 0.00, 0.00, 0.00, 0.000, 0.000, 0.000, 11:10:18.539, 1561475418539
166, -34500.21, 0.00, 0.00, 0.00, 0.00, 0.00, 0.00, 0.00, 0.000, 0.000, 0.000, 11:10:18.539, 1561475418539
167, -34763.11, 0.00, 0.00, 0.00, 0.00, 0.00, 0.00, 0.00, 0.000, 0.000, 0.000, 11:10:18.539, 1561475418539
168, -35360.84, 0.00, 0.00, 0.00, 0.00, 0.00, 0.00, 0.00, 0.000, 0.000, 0.000, 11:10:18.539, 1561475418539
169, -35214.17, 0.00, 0.00, 0.00, 0.00, 0.00, 0.00, 0.00, 0.082, -0.052, 1.026, 11:10:18.539, 1561475418539
170, -34579.24, 0.00, 0.00, 0.00, 0.00, 0.00, 0.00, 0.00, 0.000, 0.000, 0.000, 11:10:18.539, 1561475418539
171, -34647.91, 0.00, 0.00, 0.00, 0.00, 0.00, 0.00, 0.00, 0.000, 0.000, 0.000, 11:10:18.539, 1561475418539
172, -35277.33, 0.00, 0.00, 0.00, 0.00, 0.00, 0.00, 0.00, 0.000, 0.000, 0.000, 11:10:18.539, 1561475418539
173, -35294.12, 0.00, 0.00, 0.00, 0.00, 0.00, 0.00, 0.00, 0.000, 0.000, 0.000, 11:10:18.540, 1561475418540
174, -34665.61, 0.00, 0.00, 0.00, 0.00, 0.00, 0.00, 0.00, 0.000, 0.000, 0.000, 11:10:18.540, 1561475418540
175, -34572.98, 0.00, 0.00, 0.00, 0.00, 0.00, 0.00, 0.00, 0.000, 0.000, 0.000, 11:10:18.540, 1561475418540
176, -35174.96, 0.00, 0.00, 0.00, 0.00, 0.00, 0.00, 0.00, 0.000, 0.000, 0.000, 11:10:18.540, 1561475418540
177, -35326.64, 0.00, 0.00, 0.00, 0.00, 0.00, 0.00, 0.00, 0.000, 0.000, 0.000, 11:10:18.540, 1561475418540
178, -34706.45, 0.00, 0.00, 0.00, 0.00, 0.00, 0.00, 0.00, 0.000, 0.000, 0.000, 11:10:18.540, 1561475418540
179, -34518.25, 0.00, 0.00, 0.00, 0.00, 0.00, 0.00, 0.00, 0.000, 0.000, 0.000, 11:10:18.540, 1561475418540
180, -35107.41, 0.00, 0.00, 0.00, 0.00, 0.00, 0.00, 0.00, 0.084, -0.052, 1.026, 11:10:18.540, 1561475418540
181, -35411.71, 0.00, 0.00, 0.00, 0.00, 0.00, 0.00, 0.00, 0.000, 0.000, 0.000, 11:10:18.540, 1561475418540
182, -34851.38, 0.00, 0.00, 0.00, 0.00, 0.00, 0.00, 0.00, 0.000, 0.000, 0.000, 11:10:18.540, 1561475418540
183, -34465.18, 0.00, 0.00, 0.00, 0.00, 0.00, 0.00, 0.00, 0.000, 0.000, 0.000, 11:10:18.540, 1561475418540
184, -34958.95, 0.00, 0.00, 0.00, 0.00, 0.00, 0.00, 0.00, 0.000, 0.000, 0.000, 11:10:18.540, 1561475418540
185, -35414.08, 0.00, 0.00, 0.00, 0.00, 0.00, 0.00, 0.00, 0.000, 0.000, 0.000, 11:10:18.541, 1561475418541
186, -34965.70, 0.00, 0.00, 0.00, 0.00, 0.00, 0.00, 0.00, 0.000, 0.000, 0.000, 11:10:18.541, 1561475418541
187, -34488.20, 0.00, 0.00, 0.00, 0.00, 0.00, 0.00, 0.00, 0.000, 0.000, 0.000, 11:10:18.541, 1561475418541
188, -34870.42, 0.00, 0.00, 0.00, 0.00, 0.00, 0.00, 0.00, 0.000, 0.000, 0.000, 11:10:18.541, 1561475418541
189, -35406.48, 0.00, 0.00, 0.00, 0.00, 0.00, 0.00, 0.00, 0.000, 0.000, 0.000, 11:10:18.541, 1561475418541
190, -35076.97, 0.00, 0.00, 0.00, 0.00, 0.00, 0.00, 0.00, 0.084, -0.048, 1.024, 11:10:18.541, 1561475418541
191, -34523.92, 0.00, 0.00, 0.00, 0.00, 0.00, 0.00, 0.00, 0.000, 0.000, 0.000, 11:10:18.541, 1561475418541
192, -34800.59, 0.00, 0.00, 0.00, 0.00, 0.00, 0.00, 0.00, 0.000, 0.000, 0.000, 11:10:18.541, 1561475418541
193, -35362.92, 0.00, 0.00, 0.00, 0.00, 0.00, 0.00, 0.00, 0.000, 0.000, 0.000, 11:10:18.541, 1561475418541
194, -35203.80, 0.00, 0.00, 0.00, 0.00, 0.00, 0.00, 0.00, 0.000, 0.000, 0.000, 11:10:18.542, 1561475418542
195, -34571.17, 0.00, 0.00, 0.00, 0.00, 0.00, 0.00, 0.00, 0.000, 0.000, 0.000, 11:10:18.542, 1561475418542
196, -34626.92, 0.00, 0.00, 0.00, 0.00, 0.00, 0.00, 0.00, 0.000, 0.000, 0.000, 11:10:18.542, 1561475418542
197, -35262.94, 0.00, 0.00, 0.00, 0.00, 0.00, 0.00, 0.00, 0.000, 0.000, 0.000, 11:10:18.542, 1561475418542
198, -35253.13, 0.00, 0.00, 0.00, 0.00, 0.00, 0.00, 0.00, 0.000, 0.000, 0.000, 11:10:18.542, 1561475418542
199, -34637.47, 0.00, 0.00, 0.00, 0.00, 0.00, 0.00, 0.00, 0.000, 0.000, 0.000, 11:10:18.542, 1561475418542
200, -34584.34, 0.00, 0.00, 0.00, 0.00, 0.00, 0.00, 0.00, 0.086, -0.044, 1.028, 11:10:18.542, 1561475418542
201, -35243.36, 0.00, 0.00, 0.00, 0.00, 0.00, 0.00, 0.00, 0.000, 0.000, 0.000, 11:10:18.542, 1561475418542
202, -35417.28, 0.00, 0.00, 0.00, 0.00, 0.00, 0.00, 0.00, 0.000, 0.000, 0.000, 11:10:18.542, 1561475418542
203, -34812.15, 0.00, 0.00, 0.00, 0.00, 0.00, 0.00, 0.00, 0.000, 0.000, 0.000, 11:10:18.543, 1561475418543
204, -34543.03, 0.00, 0.00, 0.00, 0.00, 0.00, 0.00, 0.00, 0.000, 0.000, 0.000, 11:10:18.543, 1561475418543
205, -35109.25, 0.00, 0.00, 0.00, 0.00, 0.00, 0.00, 0.00, 0.000, 0.000, 0.000, 11:10:18.543, 1561475418543
206, -35402.93, 0.00, 0.00, 0.00, 0.00, 0.00, 0.00, 0.00, 0.000, 0.000, 0.000, 11:10:18.543, 1561475418543
207, -34854.80, 0.00, 0.00, 0.00, 0.00, 0.00, 0.00, 0.00, 0.000, 0.000, 0.000, 11:10:18.543, 1561475418543
208, -34486.64, 0.00, 0.00, 0.00, 0.00, 0.00, 0.00, 0.00, 0.000, 0.000, 0.000, 11:10:18.543, 1561475418543
209, -34991.16, 0.00, 0.00, 0.00, 0.00, 0.00, 0.00, 0.00, 0.000, 0.000, 0.000, 11:10:18.543, 1561475418543
210, -35379.86, 0.00, 0.00, 0.00, 0.00, 0.00, 0.00, 0.00, 0.088, -0.050, 1.024, 11:10:18.543, 1561475418543
211, -34928.33, 0.00, 0.00, 0.00, 0.00, 0.00, 0.00, 0.00, 0.000, 0.000, 0.000, 11:10:18.543, 1561475418543
212, -34455.13, 0.00, 0.00, 0.00, 0.00, 0.00, 0.00, 0.00, 0.000, 0.000, 0.000, 11:10:18.543, 1561475418543
213, -34870.38, 0.00, 0.00, 0.00, 0.00, 0.00, 0.00, 0.00, 0.000, 0.000, 0.000, 11:10:18.543, 1561475418543
214, -35429.86, 0.00, 0.00, 0.00, 0.00, 0.00, 0.00, 0.00, 0.000, 0.000, 0.000, 11:10:18.543, 1561475418543
215, -35115.30, 0.00, 0.00, 0.00, 0.00, 0.00, 0.00, 0.00, 0.000, 0.000, 0.000, 11:10:18.543, 1561475418543
216, -34551.84, 0.00, 0.00, 0.00, 0.00, 0.00, 0.00, 0.00, 0.000, 0.000, 0.000, 11:10:18.543, 1561475418543
217, -34787.52, 0.00, 0.00, 0.00, 0.00, 0.00, 0.00, 0.00, 0.000, 0.000, 0.000, 11:10:18.543, 1561475418543
218, -35359.63, 0.00, 0.00, 0.00, 0.00, 0.00, 0.00, 0.00, 0.000, 0.000, 0.000, 11:10:18.543, 1561475418543
219, -35177.18, 0.00, 0.00, 0.00, 0.00, 0.00, 0.00, 0.00, 0.000, 0.000, 0.000, 11:10:18.543, 1561475418543
220, -34544.64, 0.00, 0.00, 0.00, 0.00, 0.00, 0.00, 0.00, 0.088, -0.050, 1.026, 11:10:18.543, 1561475418543
221, -34596.54, 0.00, 0.00, 0.00, 0.00, 0.00, 0.00, 0.00, 0.000, 0.000, 0.000, 11:10:18.543, 1561475418543
222, -35302.41, 0.00, 0.00, 0.00, 0.00, 0.00, 0.00, 0.00, 0.000, 0.000, 0.000, 11:10:18.543, 1561475418543
223, -35345.39, 0.00, 0.00, 0.00, 0.00, 0.00, 0.00, 0.00, 0.000, 0.000, 0.000, 11:10:18.544, 1561475418544
224, -34702.49, 0.00, 0.00, 0.00, 0.00, 0.00, 0.00, 0.00, 0.000, 0.000, 0.000, 11:10:18.544, 1561475418544
225, -34597.97, 0.00, 0.00, 0.00, 0.00, 0.00, 0.00, 0.00, 0.000, 0.000, 0.000, 11:10:18.544, 1561475418544
226, -35216.11, 0.00, 0.00, 0.00, 0.00, 0.00, 0.00, 0.00, 0.000, 0.000, 0.000, 11:10:19.011, 1561475419011
227, -35416.92, 0.00, 0.00, 0.00, 0.00, 0.00, 0.00, 0.00, 0.000, 0.000, 0.000, 11:10:19.012, 1561475419012
228, -34869.70, 0.00, 0.00, 0.00, 0.00, 0.00, 0.00, 0.00, 0.000, 0.000, 0.000, 11:10:19.012, 1561475419012
229, -34650.21, 0.00, 0.00, 0.00, 0.00, 0.00, 0.00, 0.00, 0.000, 0.000, 0.000, 11:10:19.012, 1561475419012
230, -35196.00, 0.00, 0.00, 0.00, 0.00, 0.00, 0.00, 0.00, 0.090, -0.050, 1.030, 11:10:19.012, 1561475419012
231, -35546.22, 0.00, 0.00, 0.00, 0.00, 0.00, 0.00, 0.00, 0.000, 0.000, 0.000, 11:10:19.012, 1561475419012
232, -35029.12, 0.00, 0.00, 0.00, 0.00, 0.00, 0.00, 0.00, 0.000, 0.000, 0.000, 11:10:19.012, 1561475419012
233, -34647.26, 0.00, 0.00, 0.00, 0.00, 0.00, 0.00, 0.00, 0.000, 0.000, 0.000, 11:10:19.012, 1561475419012
234, -35122.14, 0.00, 0.00, 0.00, 0.00, 0.00, 0.00, 0.00, 0.000, 0.000, 0.000, 11:10:19.012, 1561475419012
235, -35545.78, 0.00, 0.00, 0.00, 0.00, 0.00, 0.00, 0.00, 0.000, 0.000, 0.000, 11:10:19.012, 1561475419012
236, -35133.81, 0.00, 0.00, 0.00, 0.00, 0.00, 0.00, 0.00, 0.000, 0.000, 0.000, 11:10:19.012, 1561475419012
237, -34661.03, 0.00, 0.00, 0.00, 0.00, 0.00, 0.00, 0.00, 0.000, 0.000, 0.000, 11:10:19.012, 1561475419012
238, -35033.81, 0.00, 0.00, 0.00, 0.00, 0.00, 0.00, 0.00, 0.000, 0.000, 0.000, 11:10:19.012, 1561475419012
239, -35526.64, 0.00, 0.00, 0.00, 0.00, 0.00, 0.00, 0.00, 0.000, 0.000, 0.000, 11:10:19.012, 1561475419012
240, -35246.40, 0.00, 0.00, 0.00, 0.00, 0.00, 0.00, 0.00, 0.000, 0.000, 0.000, 11:10:19.012, 1561475419012
241, -34690.62, 0.00, 0.00, 0.00, 0.00, 0.00, 0.00, 0.00, 0.092, -0.044, 1.030, 11:10:19.012, 1561475419012
242, -34873.73, 0.00, 0.00, 0.00, 0.00, 0.00, 0.00, 0.00, 0.000, 0.000, 0.000, 11:10:19.012, 1561475419012
243, -35479.82, 0.00, 0.00, 0.00, 0.00, 0.00, 0.00, 0.00, 0.000, 0.000, 0.000, 11:10:19.012, 1561475419012
244, -35323.38, 0.00, 0.00, 0.00, 0.00, 0.00, 0.00, 0.00, 0.000, 0.000, 0.000, 11:10:19.013, 1561475419013
245, -34715.30, 0.00, 0.00, 0.00, 0.00, 0.00, 0.00, 0.00, 0.000, 0.000, 0.000, 11:10:19.013, 1561475419013
246, -34803.39, 0.00, 0.00, 0.00, 0.00, 0.00, 0.00, 0.00, 0.000, 0.000, 0.000, 11:10:19.013, 1561475419013
247, -35386.14, 0.00, 0.00, 0.00, 0.00, 0.00, 0.00, 0.00, 0.000, 0.000, 0.000, 11:10:19.013, 1561475419013
248, -35435.16, 0.00, 0.00, 0.00, 0.00, 0.00, 0.00, 0.00, 0.000, 0.000, 0.000, 11:10:19.013, 1561475419013
249, -34802.58, 0.00, 0.00, 0.00, 0.00, 0.00, 0.00, 0.00, 0.000, 0.000, 0.000, 11:10:19.013, 1561475419013
250, -34665.48, 0.00, 0.00, 0.00, 0.00, 0.00, 0.00, 0.00, 0.000, 0.000, 0.000, 11:10:19.013, 1561475419013
251, -35279.75, 0.00, 0.00, 0.00, 0.00, 0.00, 0.00, 0.00, 0.084, -0.042, 1.026, 11:10:19.013, 1561475419013
252, -35515.45, 0.00, 0.00, 0.00, 0.00, 0.00, 0.00, 0.00, 0.000, 0.000, 0.000, 11:10:19.013, 1561475419013
253, -34942.37, 0.00, 0.00, 0.00, 0.00, 0.00, 0.00, 0.00, 0.000, 0.000, 0.000, 11:10:19.013, 1561475419013
254, -34680.45, 0.00, 0.00, 0.00, 0.00, 0.00, 0.00, 0.00, 0.000, 0.000, 0.000, 11:10:19.013, 1561475419013
255, -35219.38, 0.00, 0.00, 0.00, 0.00, 0.00, 0.00, 0.00, 0.000, 0.000, 0.000, 11:10:19.013, 1561475419013
0, -35531.09, 0.00, 0.00, 0.00, 0.00, 0.00, 0.00, 0.00, 0.000, 0.000, 0.000, 11:10:19.013, 1561475419013
1, -35042.48, 0.00, 0.00, 0.00, 0.00, 0.00, 0.00, 0.00, 0.000, 0.000, 0.000, 11:10:19.013, 1561475419013
2, -34675.22, 0.00, 0.00, 0.00, 0.00, 0.00, 0.00, 0.00, 0.000, 0.000, 0.000, 11:10:19.014, 1561475419014
3, -35140.70, 0.00, 0.00, 0.00, 0.00, 0.00, 0.00, 0.00, 0.000, 0.000, 0.000, 11:10:19.015, 1561475419015
4, -35591.78, 0.00, 0.00, 0.00, 0.00, 0.00, 0.00, 0.00, 0.000, 0.000, 0.000, 11:10:19.015, 1561475419015
5, -35186.25, 0.00, 0.00, 0.00, 0.00, 0.00, 0.00, 0.00, 0.084, -0.038, 1.030, 11:10:19.015, 1561475419015
6, -34693.62, 0.00, 0.00, 0.00, 0.00, 0.00, 0.00, 0.00, 0.000, 0.000, 0.000, 11:10:19.015, 1561475419015
7, -35044.52, 0.00, 0.00, 0.00, 0.00, 0.00, 0.00, 0.00, 0.000, 0.000, 0.000, 11:10:19.015, 1561475419015
8, -35575.77, 0.00, 0.00, 0.00, 0.00, 0.00, 0.00, 0.00, 0.000, 0.000, 0.000, 11:10:19.015, 1561475419015
9, -35281.94, 0.00, 0.00, 0.00, 0.00, 0.00, 0.00, 0.00, 0.000, 0.000, 0.000, 11:10:19.015, 1561475419015
10, -34708.73, 0.00, 0.00, 0.00, 0.00, 0.00, 0.00, 0.00, 0.000, 0.000, 0.000, 11:10:19.015, 1561475419015
11, -34912.42, 0.00, 0.00, 0.00, 0.00, 0.00, 0.00, 0.00, 0.000, 0.000, 0.000, 11:10:19.015, 1561475419015
12, -35491.20, 0.00, 0.00, 0.00, 0.00, 0.00, 0.00, 0.00, 0.000, 0.000, 0.000, 11:10:19.015, 1561475419015
13, -35352.41, 0.00, 0.00, 0.00, 0.00, 0.00, 0.00, 0.00, 0.000, 0.000, 0.000, 11:10:19.015, 1561475419015
14, -34774.84, 0.00, 0.00, 0.00, 0.00, 0.00, 0.00, 0.00, 0.000, 0.000, 0.000, 11:10:19.015, 1561475419015
15, -34870.84, 0.00, 0.00, 0.00, 0.00, 0.00, 0.00, 0.00, 0.080, -0.044, 1.036, 11:10:19.015, 1561475419015
16, -35471.41, 0.00, 0.00, 0.00, 0.00, 0.00, 0.00, 0.00, 0.000, 0.000, 0.000, 11:10:19.015, 1561475419015
17, -35491.04, 0.00, 0.00, 0.00, 0.00, 0.00, 0.00, 0.00, 0.000, 0.000, 0.000, 11:10:19.015, 1561475419015
18, -34891.34, 0.00, 0.00, 0.00, 0.00, 0.00, 0.00, 0.00, 0.000, 0.000, 0.000, 11:10:19.015, 1561475419015
19, -34778.48, 0.00, 0.00, 0.00, 0.00, 0.00, 0.00, 0.00, 0.000, 0.000, 0.000, 11:10:19.015, 1561475419015
20, -35380.60, 0.00, 0.00, 0.00, 0.00, 0.00, 0.00, 0.00, 0.000, 0.000, 0.000, 11:10:19.015, 1561475419015
21, -35545.75, 0.00, 0.00, 0.00, 0.00, 0.00, 0.00, 0.00, 0.000, 0.000, 0.000, 11:10:19.015, 1561475419015
22, -34990.00, 0.00, 0.00, 0.00, 0.00, 0.00, 0.00, 0.00, 0.000, 0.000, 0.000, 11:10:19.016, 1561475419016
23, -34747.82, 0.00, 0.00, 0.00, 0.00, 0.00, 0.00, 0.00, 0.000, 0.000, 0.000, 11:10:19.016, 1561475419016
24, -35285.96, 0.00, 0.00, 0.00, 0.00, 0.00, 0.00, 0.00, 0.000, 0.000, 0.000, 11:10:19.016, 1561475419016
25, -35609.82, 0.00, 0.00, 0.00, 0.00, 0.00, 0.00, 0.00, 0.080, -0.050, 1.026, 11:10:19.016, 1561475419016
26, -35099.17, 0.00, 0.00, 0.00, 0.00, 0.00, 0.00, 0.00, 0.000, 0.000, 0.000, 11:10:19.016, 1561475419016
27, -34714.71, 0.00, 0.00, 0.00, 0.00, 0.00, 0.00, 0.00, 0.000, 0.000, 0.000, 11:10:19.016, 1561475419016
28, -35177.00, 0.00, 0.00, 0.00, 0.00, 0.00, 0.00, 0.00, 0.000, 0.000, 0.000, 11:10:19.016, 1561475419016
29, -35626.98, 0.00, 0.00, 0.00, 0.00, 0.00, 0.00, 0.00, 0.000, 0.000, 0.000, 11:10:19.016, 1561475419016
30, -35217.54, 0.00, 0.00, 0.00, 0.00, 0.00, 0.00, 0.00, 0.000, 0.000, 0.000, 11:10:19.016, 1561475419016
31, -34723.93, 0.00, 0.00, 0.00, 0.00, 0.00, 0.00, 0.00, 0.000, 0.000, 0.000, 11:10:19.016, 1561475419016
32, -35069.13, 0.00, 0.00, 0.00, 0.00, 0.00, 0.00, 0.00, 0.000, 0.000, 0.000, 11:10:19.016, 1561475419016
33, -35603.78, 0.00, 0.00, 0.00, 0.00, 0.00, 0.00, 0.00, 0.000, 0.000, 0.000, 11:10:19.016, 1561475419016
34, -35315.69, 0.00, 0.00, 0.00, 0.00, 0.00, 0.00, 0.00, 0.000, 0.000, 0.000, 11:10:19.016, 1561475419016
35, -34759.96, 0.00, 0.00, 0.00, 0.00, 0.00, 0.00, 0.00, 0.000, 0.000, 0.000, 11:10:19.016, 1561475419016
36, -34966.98, 0.00, 0.00, 0.00, 0.00, 0.00, 0.00, 0.00, 0.078, -0.050, 1.026, 11:10:19.016, 1561475419016
37, -35546.02, 0.00, 0.00, 0.00, 0.00, 0.00, 0.00, 0.00, 0.000, 0.000, 0.000, 11:10:19.016, 1561475419016
38, -35414.13, 0.00, 0.00, 0.00, 0.00, 0.00, 0.00, 0.00, 0.000, 0.000, 0.000, 11:10:19.016, 1561475419016
39, -34807.79, 0.00, 0.00, 0.00, 0.00, 0.00, 0.00, 0.00, 0.000, 0.000, 0.000, 11:10:19.016, 1561475419016
40, -34842.50, 0.00, 0.00, 0.00, 0.00, 0.00, 0.00, 0.00, 0.000, 0.000, 0.000, 11:10:19.016, 1561475419016
41, -35443.90, 0.00, 0.00, 0.00, 0.00, 0.00, 0.00, 0.00, 0.000, 0.000, 0.000, 11:10:19.016, 1561475419016
42, -35459.21, 0.00, 0.00, 0.00, 0.00, 0.00, 0.00, 0.00, 0.000, 0.000, 0.000, 11:10:19.016, 1561475419016
43, -34817.40, 0.00, 0.00, 0.00, 0.00, 0.00, 0.00, 0.00, 0.000, 0.000, 0.000, 11:10:19.017, 1561475419017
44, -34758.26, 0.00, 0.00, 0.00, 0.00, 0.00, 0.00, 0.00, 0.000, 0.000, 0.000, 11:10:19.017, 1561475419017
45, -35413.34, 0.00, 0.00, 0.00, 0.00, 0.00, 0.00, 0.00, 0.000, 0.000, 0.000, 11:10:19.017, 1561475419017
46, -35639.79, 0.00, 0.00, 0.00, 0.00, 0.00, 0.00, 0.00, 0.080, -0.052, 1.032, 11:10:19.017, 1561475419017
47, -35054.84, 0.00, 0.00, 0.00, 0.00, 0.00, 0.00, 0.00, 0.000, 0.000, 0.000, 11:10:19.017, 1561475419017
48, -34774.53, 0.00, 0.00, 0.00, 0.00, 0.00, 0.00, 0.00, 0.000, 0.000, 0.000, 11:10:19.017, 1561475419017
49, -35304.96, 0.00, 0.00, 0.00, 0.00, 0.00, 0.00, 0.00, 0.000, 0.000, 0.000, 11:10:19.017, 1561475419017
50, -35626.04, 0.00, 0.00, 0.00, 0.00, 0.00, 0.00, 0.00, 0.000, 0.000, 0.000, 11:10:19.017, 1561475419017
51, -35126.14, 0.00, 0.00, 0.00, 0.00, 0.00, 0.00, 0.00, 0.000, 0.000, 0.000, 11:10:19.017, 1561475419017
52, -34751.57, 0.00, 0.00, 0.00, 0.00, 0.00, 0.00, 0.00, 0.000, 0.000, 0.000, 11:10:19.017, 1561475419017
53, -35192.13, 0.00, 0.00, 0.00, 0.00, 0.00, 0.00, 0.00, 0.000, 0.000, 0.000, 11:10:19.018, 1561475419018
54, -35634.63, 0.00, 0.00, 0.00, 0.00, 0.00, 0.00, 0.00, 0.000, 0.000, 0.000, 11:10:19.018, 1561475419018
55, -35228.43, 0.00, 0.00, 0.00, 0.00, 0.00, 0.00, 0.00, 0.000, 0.000, 0.000, 11:10:19.018, 1561475419018
56, -34719.41, 0.00, 0.00, 0.00, 0.00, 0.00, 0.00, 0.00, 0.084, -0.050, 1.026, 11:10:19.018, 1561475419018
57, -35051.04, 0.00, 0.00, 0.00, 0.00, 0.00, 0.00, 0.00, 0.000, 0.000, 0.000, 11:10:19.018, 1561475419018
58, -35573.02, 0.00, 0.00, 0.00, 0.00, 0.00, 0.00, 0.00, 0.000, 0.000, 0.000, 11:10:19.018, 1561475419018
59, -35304.29, 0.00, 0.00, 0.00, 0.00, 0.00, 0.00, 0.00, 0.000, 0.000, 0.000, 11:10:19.018, 1561475419018
60, -34731.75, 0.00, 0.00, 0.00, 0.00, 0.00, 0.00, 0.00, 0.000, 0.000, 0.000, 11:10:19.018, 1561475419018
61, -34930.97, 0.00, 0.00, 0.00, 0.00, 0.00, 0.00, 0.00, 0.000, 0.000, 0.000, 11:10:19.018, 1561475419018
62, -35533.04, 0.00, 0.00, 0.00, 0.00, 0.00, 0.00, 0.00, 0.000, 0.000, 0.000, 11:10:19.018, 1561475419018
63, -35409.01, 0.00, 0.00, 0.00, 0.00, 0.00, 0.00, 0.00, 0.000, 0.000, 0.000, 11:10:19.018, 1561475419018
64, -34809.87, 0.00, 0.00, 0.00, 0.00, 0.00, 0.00, 0.00, 0.000, 0.000, 0.000, 11:10:19.018, 1561475419018
65, -34825.58, 0.00, 0.00, 0.00, 0.00, 0.00, 0.00, 0.00, 0.000, 0.000, 0.000, 11:10:19.018, 1561475419018
66, -35444.37, 0.00, 0.00, 0.00, 0.00, 0.00, 0.00, 0.00, 0.086, -0.050, 1.030, 11:10:19.018, 1561475419018
67, -35522.40, 0.00, 0.00, 0.00, 0.00, 0.00, 0.00, 0.00, 0.000, 0.000, 0.000, 11:10:19.018, 1561475419018
68, -34919.28, 0.00, 0.00, 0.00, 0.00, 0.00, 0.00, 0.00, 0.000, 0.000, 0.000, 11:10:19.018, 1561475419018
69, -34796.34, 0.00, 0.00, 0.00, 0.00, 0.00, 0.00, 0.00, 0.000, 0.000, 0.000, 11:10:19.018, 1561475419018
70, -35392.45, 0.00, 0.00, 0.00, 0.00, 0.00, 0.00, 0.00, 0.000, 0.000, 0.000, 11:10:19.018, 1561475419018
71, -35587.69, 0.00, 0.00, 0.00, 0.00, 0.00, 0.00, 0.00, 0.000, 0.000, 0.000, 11:10:19.018, 1561475419018
72, -34992.73, 0.00, 0.00, 0.00, 0.00, 0.00, 0.00, 0.00, 0.000, 0.000, 0.000, 11:10:19.018, 1561475419018
73, -34730.45, 0.00, 0.00, 0.00, 0.00, 0.00, 0.00, 0.00, 0.000, 0.000, 0.000, 11:10:19.018, 1561475419018
74, -35262.94, 0.00, 0.00, 0.00, 0.00, 0.00, 0.00, 0.00, 0.000, 0.000, 0.000, 11:10:19.018, 1561475419018
75, -35584.36, 0.00, 0.00, 0.00, 0.00, 0.00, 0.00, 0.00, 0.000, 0.000, 0.000, 11:10:19.019, 1561475419019
76, -35122.05, 0.00, 0.00, 0.00, 0.00, 0.00, 0.00, 0.00, 0.086, -0.044, 1.026, 11:10:19.019, 1561475419019
77, -34728.62, 0.00, 0.00, 0.00, 0.00, 0.00, 0.00, 0.00, 0.000, 0.000, 0.000, 11:10:19.019, 1561475419019
78, -35170.22, 0.00, 0.00, 0.00, 0.00, 0.00, 0.00, 0.00, 0.000, 0.000, 0.000, 11:10:19.019, 1561475419019
79, -35622.67, 0.00, 0.00, 0.00, 0.00, 0.00, 0.00, 0.00, 0.000, 0.000, 0.000, 11:10:19.019, 1561475419019
80, -35217.83, 0.00, 0.00, 0.00, 0.00, 0.00, 0.00, 0.00, 0.000, 0.000, 0.000, 11:10:19.019, 1561475419019
81, -34705.08, 0.00, 0.00, 0.00, 0.00, 0.00, 0.00, 0.00, 0.000, 0.000, 0.000, 11:10:19.019, 1561475419019
82, -35021.92, 0.00, 0.00, 0.00, 0.00, 0.00, 0.00, 0.00, 0.000, 0.000, 0.000, 11:10:19.019, 1561475419019
83, -35550.27, 0.00, 0.00, 0.00, 0.00, 0.00, 0.00, 0.00, 0.000, 0.000, 0.000, 11:10:19.019, 1561475419019
84, -35276.13, 0.00, 0.00, 0.00, 0.00, 0.00, 0.00, 0.00, 0.000, 0.000, 0.000, 11:10:19.019, 1561475419019
85, -34719.79, 0.00, 0.00, 0.00, 0.00, 0.00, 0.00, 0.00, 0.000, 0.000, 0.000, 11:10:19.019, 1561475419019
86, -34974.51, 0.00, 0.00, 0.00, 0.00, 0.00, 0.00, 0.00, 0.088, -0.046, 1.030, 11:10:19.019, 1561475419019
87, -35546.18, 0.00, 0.00, 0.00, 0.00, 0.00, 0.00, 0.00, 0.000, 0.000, 0.000, 11:10:19.019, 1561475419019
88, -35419.18, 0.00, 0.00, 0.00, 0.00, 0.00, 0.00, 0.00, 0.000, 0.000, 0.000, 11:10:19.019, 1561475419019
89, -34821.96, 0.00, 0.00, 0.00, 0.00, 0.00, 0.00, 0.00, 0.000, 0.000, 0.000, 11:10:19.019, 1561475419019
90, -34851.42, 0.00, 0.00, 0.00, 0.00, 0.00, 0.00, 0.00, 0.000, 0.000, 0.000, 11:10:19.492, 1561475419492
91, -35462.47, 0.00, 0.00, 0.00, 0.00, 0.00, 0.00, 0.00, 0.000, 0.000, 0.000, 11:10:19.492, 1561475419492
92, -35470.63, 0.00, 0.00, 0.00, 0.00, 0.00, 0.00, 0.00, 0.000, 0.000, 0.000, 11:10:19.492, 1561475419492
93, -34858.39, 0.00, 0.00, 0.00, 0.00, 0.00, 0.00, 0.00, 0.000, 0.000, 0.000, 11:10:19.492, 1561475419492
94, -34772.23, 0.00, 0.00, 0.00, 0.00, 0.00, 0.00, 0.00, 0.000, 0.000, 0.000, 11:10:19.492, 1561475419492
95, -35384.40, 0.00, 0.00, 0.00, 0.00, 0.00, 0.00, 0.00, 0.000, 0.000, 0.000, 11:10:19.492, 1561475419492
96, -35587.80, 0.00, 0.00, 0.00, 0.00, 0.00, 0.00, 0.00, 0.000, 0.000, 0.000, 11:10:19.492, 1561475419492
97, -35010.18, 0.00, 0.00, 0.00, 0.00, 0.00, 0.00, 0.00, 0.088, -0.042, 1.034, 11:10:19.492, 1561475419492
98, -34712.97, 0.00, 0.00, 0.00, 0.00, 0.00, 0.00, 0.00, 0.000, 0.000, 0.000, 11:10:19.492, 1561475419492
99, -35207.93, 0.00, 0.00, 0.00, 0.00, 0.00, 0.00, 0.00, 0.000, 0.000, 0.000, 11:10:19.492, 1561475419492
100, -35539.09, 0.00, 0.00, 0.00, 0.00, 0.00, 0.00, 0.00, 0.000, 0.000, 0.000, 11:10:19.492, 1561475419492
101, -35062.53, 0.00, 0.00, 0.00, 0.00, 0.00, 0.00, 0.00, 0.000, 0.000, 0.000, 11:10:19.493, 1561475419493
102, -34696.34, 0.00, 0.00, 0.00, 0.00, 0.00, 0.00, 0.00, 0.000, 0.000, 0.000, 11:10:19.493, 1561475419493
103, -35174.13, 0.00, 0.00, 0.00, 0.00, 0.00, 0.00, 0.00, 0.000, 0.000, 0.000, 11:10:19.493, 1561475419493
104, -35622.09, 0.00, 0.00, 0.00, 0.00, 0.00, 0.00, 0.00, 0.000, 0.000, 0.000, 11:10:19.493, 1561475419493
105, -35239.29, 0.00, 0.00, 0.00, 0.00, 0.00, 0.00, 0.00, 0.000, 0.000, 0.000, 11:10:19.493, 1561475419493
106, -34722.54, 0.00, 0.00, 0.00, 0.00, 0.00, 0.00, 0.00, 0.000, 0.000, 0.000, 11:10:19.493, 1561475419493
107, -35055.22, 0.00, 0.00, 0.00, 0.00, 0.00, 0.00, 0.00, 0.086, -0.048, 1.028, 11:10:19.493, 1561475419493
108, -35574.75, 0.00, 0.00, 0.00, 0.00, 0.00, 0.00, 0.00, 0.000, 0.000, 0.000, 11:10:19.493, 1561475419493
109, -35295.30, 0.00, 0.00, 0.00, 0.00, 0.00, 0.00, 0.00, 0.000, 0.000, 0.000, 11:10:19.493, 1561475419493
110, -34730.45, 0.00, 0.00, 0.00, 0.00, 0.00, 0.00, 0.00, 0.000, 0.000, 0.000, 11:10:19.493, 1561475419493
111, -34910.99, 0.00, 0.00, 0.00, 0.00, 0.00, 0.00, 0.00, 0.000, 0.000, 0.000, 11:10:19.493, 1561475419493
112, -35527.96, 0.00, 0.00, 0.00, 0.00, 0.00, 0.00, 0.00, 0.000, 0.000, 0.000, 11:10:19.493, 1561475419493
113, -35440.19, 0.00, 0.00, 0.00, 0.00, 0.00, 0.00, 0.00, 0.000, 0.000, 0.000, 11:10:19.493, 1561475419493
114, -34854.44, 0.00, 0.00, 0.00, 0.00, 0.00, 0.00, 0.00, 0.000, 0.000, 0.000, 11:10:19.494, 1561475419494
115, -34877.93, 0.00, 0.00, 0.00, 0.00, 0.00, 0.00, 0.00, 0.000, 0.000, 0.000, 11:10:19.494, 1561475419494
116, -35443.36, 0.00, 0.00, 0.00, 0.00, 0.00, 0.00, 0.00, 0.000, 0.000, 0.000, 11:10:19.494, 1561475419494
117, -35492.47, 0.00, 0.00, 0.00, 0.00, 0.00, 0.00, 0.00, 0.090, -0.044, 1.026, 11:10:19.494, 1561475419494
118, -34912.06, 0.00, 0.00, 0.00, 0.00, 0.00, 0.00, 0.00, 0.000, 0.000, 0.000, 11:10:19.495, 1561475419495
119, -34799.96, 0.00, 0.00, 0.00, 0.00, 0.00, 0.00, 0.00, 0.000, 0.000, 0.000, 11:10:19.495, 1561475419495
120, -35382.68, 0.00, 0.00, 0.00, 0.00, 0.00, 0.00, 0.00, 0.000, 0.000, 0.000, 11:10:19.495, 1561475419495
121, -35575.28, 0.00, 0.00, 0.00, 0.00, 0.00, 0.00, 0.00, 0.000, 0.000, 0.000, 11:10:19.496, 1561475419496
122, -34999.39, 0.00, 0.00, 0.00, 0.00, 0.00, 0.00, 0.00, 0.000, 0.000, 0.000, 11:10:19.496, 1561475419496
123, -34714.47, 0.00, 0.00, 0.00, 0.00, 0.00, 0.00, 0.00, 0.000, 0.000, 0.000, 11:10:19.496, 1561475419496
124, -35260.75, 0.00, 0.00, 0.00, 0.00, 0.00, 0.00, 0.00, 0.000, 0.000, 0.000, 11:10:19.496, 1561475419496
125, -35610.73, 0.00, 0.00, 0.00, 0.00, 0.00, 0.00, 0.00, 0.000, 0.000, 0.000, 11:10:19.496, 1561475419496
126, -35091.32, 0.00, 0.00, 0.00, 0.00, 0.00, 0.00, 0.00, 0.000, 0.000, 0.000, 11:10:19.496, 1561475419496
127, -34683.47, 0.00, 0.00, 0.00, 0.00, 0.00, 0.00, 0.00, 0.094, -0.042, 1.034, 11:10:19.496, 1561475419496
128, -35134.10, 0.00, 0.00, 0.00, 0.00, 0.00, 0.00, 0.00, 0.000, 0.000, 0.000, 11:10:19.496, 1561475419496
129, -35589.86, 0.00, 0.00, 0.00, 0.00, 0.00, 0.00, 0.00, 0.000, 0.000, 0.000, 11:10:19.496, 1561475419496
130, -35174.92, 0.00, 0.00, 0.00, 0.00, 0.00, 0.00, 0.00, 0.000, 0.000, 0.000, 11:10:19.496, 1561475419496
131, -34664.00, 0.00, 0.00, 0.00, 0.00, 0.00, 0.00, 0.00, 0.000, 0.000, 0.000, 11:10:19.496, 1561475419496
132, -35012.71, 0.00, 0.00, 0.00, 0.00, 0.00, 0.00, 0.00, 0.000, 0.000, 0.000, 11:10:19.496, 1561475419496
133, -35558.56, 0.00, 0.00, 0.00, 0.00, 0.00, 0.00, 0.00, 0.000, 0.000, 0.000, 11:10:19.496, 1561475419496
134, -35285.49, 0.00, 0.00, 0.00, 0.00, 0.00, 0.00, 0.00, 0.000, 0.000, 0.000, 11:10:19.497, 1561475419497
135, -34727.84, 0.00, 0.00, 0.00, 0.00, 0.00, 0.00, 0.00, 0.000, 0.000, 0.000, 11:10:19.497, 1561475419497
136, -34944.54, 0.00, 0.00, 0.00, 0.00, 0.00, 0.00, 0.00, 0.000, 0.000, 0.000, 11:10:19.497, 1561475419497
137, -35556.86, 0.00, 0.00, 0.00, 0.00, 0.00, 0.00, 0.00, 0.096, -0.052, 1.034, 11:10:19.497, 1561475419497
138, -35461.46, 0.00, 0.00, 0.00, 0.00, 0.00, 0.00, 0.00, 0.000, 0.000, 0.000, 11:10:19.497, 1561475419497
139, -34871.83, 0.00, 0.00, 0.00, 0.00, 0.00, 0.00, 0.00, 0.000, 0.000, 0.000, 11:10:19.497, 1561475419497
140, -34871.00, 0.00, 0.00, 0.00, 0.00, 0.00, 0.00, 0.00, 0.000, 0.000, 0.000, 11:10:19.497, 1561475419497
141, -35466.11, 0.00, 0.00, 0.00, 0.00, 0.00, 0.00, 0.00, 0.000, 0.000, 0.000, 11:10:19.497, 1561475419497
142, -35521.44, 0.00, 0.00, 0.00, 0.00, 0.00, 0.00, 0.00, 0.000, 0.000, 0.000, 11:10:19.497, 1561475419497
143, -34916.93, 0.00, 0.00, 0.00, 0.00, 0.00, 0.00, 0.00, 0.000, 0.000, 0.000, 11:10:19.497, 1561475419497
144, -34760.45, 0.00, 0.00, 0.00, 0.00, 0.00, 0.00, 0.00, 0.000, 0.000, 0.000, 11:10:19.497, 1561475419497
145, -35336.77, 0.00, 0.00, 0.00, 0.00, 0.00, 0.00, 0.00, 0.000, 0.000, 0.000, 11:10:19.497, 1561475419497
146, -35567.86, 0.00, 0.00, 0.00, 0.00, 0.00, 0.00, 0.00, 0.000, 0.000, 0.000, 11:10:19.497, 1561475419497
147, -34999.70, 0.00, 0.00, 0.00, 0.00, 0.00, 0.00, 0.00, 0.000, 0.000, 0.000, 11:10:19.498, 1561475419498
148, -34703.41, 0.00, 0.00, 0.00, 0.00, 0.00, 0.00, 0.00, 0.092, -0.048, 1.038, 11:10:19.498, 1561475419498
149, -35227.84, 0.00, 0.00, 0.00, 0.00, 0.00, 0.00, 0.00, 0.000, 0.000, 0.000, 11:10:19.498, 1561475419498
150, -35565.94, 0.00, 0.00, 0.00, 0.00, 0.00, 0.00, 0.00, 0.000, 0.000, 0.000, 11:10:19.498, 1561475419498
151, -35078.20, 0.00, 0.00, 0.00, 0.00, 0.00, 0.00, 0.00, 0.000, 0.000, 0.000, 11:10:19.498, 1561475419498
152, -34672.54, 0.00, 0.00, 0.00, 0.00, 0.00, 0.00, 0.00, 0.000, 0.000, 0.000, 11:10:19.498, 1561475419498
153, -35107.88, 0.00, 0.00, 0.00, 0.00, 0.00, 0.00, 0.00, 0.000, 0.000, 0.000, 11:10:19.498, 1561475419498
154, -35571.01, 0.00, 0.00, 0.00, 0.00, 0.00, 0.00, 0.00, 0.000, 0.000, 0.000, 11:10:19.498, 1561475419498
155, -35221.36, 0.00, 0.00, 0.00, 0.00, 0.00, 0.00, 0.00, 0.000, 0.000, 0.000, 11:10:19.498, 1561475419498
156, -34732.51, 0.00, 0.00, 0.00, 0.00, 0.00, 0.00, 0.00, 0.000, 0.000, 0.000, 11:10:19.498, 1561475419498
157, -35049.64, 0.00, 0.00, 0.00, 0.00, 0.00, 0.00, 0.00, 0.000, 0.000, 0.000, 11:10:19.498, 1561475419498
158, -35599.51, 0.00, 0.00, 0.00, 0.00, 0.00, 0.00, 0.00, 0.088, -0.048, 1.036, 11:10:19.498, 1561475419498
159, -35364.28, 0.00, 0.00, 0.00, 0.00, 0.00, 0.00, 0.00, 0.000, 0.000, 0.000, 11:10:19.498, 1561475419498
160, -34794.94, 0.00, 0.00, 0.00, 0.00, 0.00, 0.00, 0.00, 0.000, 0.000, 0.000, 11:10:19.499, 1561475419499
161, -34956.00, 0.00, 0.00, 0.00, 0.00, 0.00, 0.00, 0.00, 0.000, 0.000, 0.000, 11:10:19.499, 1561475419499
162, -35545.22, 0.00, 0.00, 0.00, 0.00, 0.00, 0.00, 0.00, 0.000, 0.000, 0.000, 11:10:19.499, 1561475419499
163, -35415.80, 0.00, 0.00, 0.00, 0.00, 0.00, 0.00, 0.00, 0.000, 0.000, 0.000, 11:10:19.499, 1561475419499
164, -34814.34, 0.00, 0.00, 0.00, 0.00, 0.00, 0.00, 0.00, 0.000, 0.000, 0.000, 11:10:19.499, 1561475419499
165, -34867.36, 0.00, 0.00, 0.00, 0.00, 0.00, 0.00, 0.00, 0.000, 0.000, 0.000, 11:10:19.499, 1561475419499
166, -35466.65, 0.00, 0.00, 0.00, 0.00, 0.00, 0.00, 0.00, 0.000, 0.000, 0.000, 11:10:19.499, 1561475419499
167, -35518.82, 0.00, 0.00, 0.00, 0.00, 0.00, 0.00, 0.00, 0.000, 0.000, 0.000, 11:10:19.499, 1561475419499
168, -34911.25, 0.00, 0.00, 0.00, 0.00, 0.00, 0.00, 0.00, 0.090, -0.050, 1.032, 11:10:19.499, 1561475419499
169, -34790.63, 0.00, 0.00, 0.00, 0.00, 0.00, 0.00, 0.00, 0.000, 0.000, 0.000, 11:10:19.499, 1561475419499
170, -35361.55, 0.00, 0.00, 0.00, 0.00, 0.00, 0.00, 0.00, 0.000, 0.000, 0.000, 11:10:19.499, 1561475419499
171, -35570.99, 0.00, 0.00, 0.00, 0.00, 0.00, 0.00, 0.00, 0.000, 0.000, 0.000, 11:10:19.499, 1561475419499
172, -35017.96, 0.00, 0.00, 0.00, 0.00, 0.00, 0.00, 0.00, 0.000, 0.000, 0.000, 11:10:19.500, 1561475419500
173, -34730.63, 0.00, 0.00, 0.00, 0.00, 0.00, 0.00, 0.00, 0.000, 0.000, 0.000, 11:10:19.500, 1561475419500
174, -35274.94, 0.00, 0.00, 0.00, 0.00, 0.00, 0.00, 0.00, 0.000, 0.000, 0.000, 11:10:19.500, 1561475419500
175, -35611.34, 0.00, 0.00, 0.00, 0.00, 0.00, 0.00, 0.00, 0.000, 0.000, 0.000, 11:10:19.500, 1561475419500
176, -35109.94, 0.00, 0.00, 0.00, 0.00, 0.00, 0.00, 0.00, 0.000, 0.000, 0.000, 11:10:19.500, 1561475419500
177, -34686.06, 0.00, 0.00, 0.00, 0.00, 0.00, 0.00, 0.00, 0.000, 0.000, 0.000, 11:10:19.500, 1561475419500
178, -35102.90, 0.00, 0.00, 0.00, 0.00, 0.00, 0.00, 0.00, 0.088, -0.048, 1.034, 11:10:19.500, 1561475419500
179, -35550.20, 0.00, 0.00, 0.00, 0.00, 0.00, 0.00, 0.00, 0.000, 0.000, 0.000, 11:10:19.500, 1561475419500
180, -35207.04, 0.00, 0.00, 0.00, 0.00, 0.00, 0.00, 0.00, 0.000, 0.000, 0.000, 11:10:19.500, 1561475419500
181, -34735.77, 0.00, 0.00, 0.00, 0.00, 0.00, 0.00, 0.00, 0.000, 0.000, 0.000, 11:10:19.500, 1561475419500
182, -35045.19, 0.00, 0.00, 0.00, 0.00, 0.00, 0.00, 0.00, 0.000, 0.000, 0.000, 11:10:19.500, 1561475419500
183, -35590.82, 0.00, 0.00, 0.00, 0.00, 0.00, 0.00, 0.00, 0.000, 0.000, 0.000, 11:10:19.500, 1561475419500
184, -35345.30, 0.00, 0.00, 0.00, 0.00, 0.00, 0.00, 0.00, 0.000, 0.000, 0.000, 11:10:19.500, 1561475419500
185, -34781.04, 0.00, 0.00, 0.00, 0.00, 0.00, 0.00, 0.00, 0.000, 0.000, 0.000, 11:10:19.501, 1561475419501
186, -34966.87, 0.00, 0.00, 0.00, 0.00, 0.00, 0.00, 0.00, 0.000, 0.000, 0.000, 11:10:19.501, 1561475419501
187, -35563.90, 0.00, 0.00, 0.00, 0.00, 0.00, 0.00, 0.00, 0.000, 0.000, 0.000, 11:10:19.501, 1561475419501
188, -35447.83, 0.00, 0.00, 0.00, 0.00, 0.00, 0.00, 0.00, 0.090, -0.046, 1.030, 11:10:19.501, 1561475419501
189, -34830.81, 0.00, 0.00, 0.00, 0.00, 0.00, 0.00, 0.00, 0.000, 0.000, 0.000, 11:10:19.501, 1561475419501
190, -34863.18, 0.00, 0.00, 0.00, 0.00, 0.00, 0.00, 0.00, 0.000, 0.000, 0.000, 11:10:19.501, 1561475419501
191, -35474.81, 0.00, 0.00, 0.00, 0.00, 0.00, 0.00, 0.00, 0.000, 0.000, 0.000, 11:10:19.501, 1561475419501
192, -35538.89, 0.00, 0.00, 0.00, 0.00, 0.00, 0.00, 0.00, 0.000, 0.000, 0.000, 11:10:19.501, 1561475419501
193, -34927.53, 0.00, 0.00, 0.00, 0.00, 0.00, 0.00, 0.00, 0.000, 0.000, 0.000, 11:10:19.501, 1561475419501
194, -34781.01, 0.00, 0.00, 0.00, 0.00, 0.00, 0.00, 0.00, 0.000, 0.000, 0.000, 11:10:19.501, 1561475419501
195, -35357.31, 0.00, 0.00, 0.00, 0.00, 0.00, 0.00, 0.00, 0.000, 0.000, 0.000, 11:10:19.501, 1561475419501
196, -35569.98, 0.00, 0.00, 0.00, 0.00, 0.00, 0.00, 0.00, 0.000, 0.000, 0.000, 11:10:19.501, 1561475419501
197, -35017.07, 0.00, 0.00, 0.00, 0.00, 0.00, 0.00, 0.00, 0.000, 0.000, 0.000, 11:10:19.501, 1561475419501
198, -34731.08, 0.00, 0.00, 0.00, 0.00, 0.00, 0.00, 0.00, 0.084, -0.050, 1.034, 11:10:19.501, 1561475419501
199, -35235.49, 0.00, 0.00, 0.00, 0.00, 0.00, 0.00, 0.00, 0.000, 0.000, 0.000, 11:10:19.502, 1561475419502
200, -35585.70, 0.00, 0.00, 0.00, 0.00, 0.00, 0.00, 0.00, 0.000, 0.000, 0.000, 11:10:19.502, 1561475419502
201, -35113.58, 0.00, 0.00, 0.00, 0.00, 0.00, 0.00, 0.00, 0.000, 0.000, 0.000, 11:10:19.502, 1561475419502
202, -34702.02, 0.00, 0.00, 0.00, 0.00, 0.00, 0.00, 0.00, 0.000, 0.000, 0.000, 11:10:19.502, 1561475419502
203, -35121.59, 0.00, 0.00, 0.00, 0.00, 0.00, 0.00, 0.00, 0.000, 0.000, 0.000, 11:10:19.502, 1561475419502
204, -35643.27, 0.00, 0.00, 0.00, 0.00, 0.00, 0.00, 0.00, 0.000, 0.000, 0.000, 11:10:19.502, 1561475419502
205, -35257.93, 0.00, 0.00, 0.00, 0.00, 0.00, 0.00, 0.00, 0.000, 0.000, 0.000, 11:10:19.502, 1561475419502
206, -34732.24, 0.00, 0.00, 0.00, 0.00, 0.00, 0.00, 0.00, 0.000, 0.000, 0.000, 11:10:19.502, 1561475419502
207, -35041.41, 0.00, 0.00, 0.00, 0.00, 0.00, 0.00, 0.00, 0.000, 0.000, 0.000, 11:10:19.502, 1561475419502
208, -35582.55, 0.00, 0.00, 0.00, 0.00, 0.00, 0.00, 0.00, 0.000, 0.000, 0.000, 11:10:19.502, 1561475419502
209, -35331.96, 0.00, 0.00, 0.00, 0.00, 0.00, 0.00, 0.00, 0.084, -0.044, 1.038, 11:10:19.502, 1561475419502
210, -34741.85, 0.00, 0.00, 0.00, 0.00, 0.00, 0.00, 0.00, 0.000, 0.000, 0.000, 11:10:19.978, 1561475419978
211, -34885.51, 0.00, 0.00, 0.00, 0.00, 0.00, 0.00, 0.00, 0.000, 0.000, 0.000, 11:10:19.978, 1561475419978
212, -35492.36, 0.00, 0.00, 0.00, 0.00, 0.00, 0.00, 0.00, 0.000, 0.000, 0.000, 11:10:19.978, 1561475419978
213, -35426.35, 0.00, 0.00, 0.00, 0.00, 0.00, 0.00, 0.00, 0.000, 0.000, 0.000, 11:10:19.978, 1561475419978
214, -34813.13, 0.00, 0.00, 0.00, 0.00, 0.00, 0.00, 0.00, 0.000, 0.000, 0.000, 11:10:19.978, 1561475419978
215, -34830.25, 0.00, 0.00, 0.00, 0.00, 0.00, 0.00, 0.00, 0.000, 0.000, 0.000, 11:10:19.978, 1561475419978
216, -35455.25, 0.00, 0.00, 0.00, 0.00, 0.00, 0.00, 0.00, 0.000, 0.000, 0.000, 11:10:19.978, 1561475419978
217, -35513.25, 0.00, 0.00, 0.00, 0.00, 0.00, 0.00, 0.00, 0.000, 0.000, 0.000, 11:10:19.978, 1561475419978
218, -34891.99, 0.00, 0.00, 0.00, 0.00, 0.00, 0.00, 0.00, 0.000, 0.000, 0.000, 11:10:19.978, 1561475419978
219, -34763.76, 0.00, 0.00, 0.00, 0.00, 0.00, 0.00, 0.00, 0.086, -0.042, 1.032, 11:10:19.978, 1561475419978
220, -35335.38, 0.00, 0.00, 0.00, 0.00, 0.00, 0.00, 0.00, 0.000, 0.000, 0.000, 11:10:19.979, 1561475419979
221, -35567.57, 0.00, 0.00, 0.00, 0.00, 0.00, 0.00, 0.00, 0.000, 0.000, 0.000, 11:10:19.979, 1561475419979
222, -35001.47, 0.00, 0.00, 0.00, 0.00, 0.00, 0.00, 0.00, 0.000, 0.000, 0.000, 11:10:19.979, 1561475419979
223, -34722.16, 0.00, 0.00, 0.00, 0.00, 0.00, 0.00, 0.00, 0.000, 0.000, 0.000, 11:10:19.979, 1561475419979
224, -35262.56, 0.00, 0.00, 0.00, 0.00, 0.00, 0.00, 0.00, 0.000, 0.000, 0.000, 11:10:19.979, 1561475419979
225, -35631.29, 0.00, 0.00, 0.00, 0.00, 0.00, 0.00, 0.00, 0.000, 0.000, 0.000, 11:10:19.979, 1561475419979
226, -35161.37, 0.00, 0.00, 0.00, 0.00, 0.00, 0.00, 0.00, 0.000, 0.000, 0.000, 11:10:19.979, 1561475419979
227, -34726.77, 0.00, 0.00, 0.00, 0.00, 0.00, 0.00, 0.00, 0.000, 0.000, 0.000, 11:10:19.979, 1561475419979
228, -35133.72, 0.00, 0.00, 0.00, 0.00, 0.00, 0.00, 0.00, 0.000, 0.000, 0.000, 11:10:19.979, 1561475419979
229, -35595.71, 0.00, 0.00, 0.00, 0.00, 0.00, 0.00, 0.00, 0.090, -0.044, 1.022, 11:10:19.979, 1561475419979
230, -35226.71, 0.00, 0.00, 0.00, 0.00, 0.00, 0.00, 0.00, 0.000, 0.000, 0.000, 11:10:19.979, 1561475419979
231, -34716.71, 0.00, 0.00, 0.00, 0.00, 0.00, 0.00, 0.00, 0.000, 0.000, 0.000, 11:10:19.979, 1561475419979
232, -35020.38, 0.00, 0.00, 0.00, 0.00, 0.00, 0.00, 0.00, 0.000, 0.000, 0.000, 11:10:19.979, 1561475419979
233, -35575.19, 0.00, 0.00, 0.00, 0.00, 0.00, 0.00, 0.00, 0.000, 0.000, 0.000, 11:10:19.979, 1561475419979
234, -35336.86, 0.00, 0.00, 0.00, 0.00, 0.00, 0.00, 0.00, 0.000, 0.000, 0.000, 11:10:19.979, 1561475419979
235, -34751.04, 0.00, 0.00, 0.00, 0.00, 0.00, 0.00, 0.00, 0.000, 0.000, 0.000, 11:10:19.979, 1561475419979
236, -34891.07, 0.00, 0.00, 0.00, 0.00, 0.00, 0.00, 0.00, 0.000, 0.000, 0.000, 11:10:19.979, 1561475419979
237, -35477.80, 0.00, 0.00, 0.00, 0.00, 0.00, 0.00, 0.00, 0.000, 0.000, 0.000, 11:10:19.979, 1561475419979
238, -35413.05, 0.00, 0.00, 0.00, 0.00, 0.00, 0.00, 0.00, 0.000, 0.000, 0.000, 11:10:19.979, 1561475419979
239, -34850.64, 0.00, 0.00, 0.00, 0.00, 0.00, 0.00, 0.00, 0.090, -0.044, 1.034, 11:10:19.979, 1561475419979
240, -34825.78, 0.00, 0.00, 0.00, 0.00, 0.00, 0.00, 0.00, 0.000, 0.000, 0.000, 11:10:19.979, 1561475419979
241, -35401.27, 0.00, 0.00, 0.00, 0.00, 0.00, 0.00, 0.00, 0.000, 0.000, 0.000, 11:10:19.979, 1561475419979
242, -35483.08, 0.00, 0.00, 0.00, 0.00, 0.00, 0.00, 0.00, 0.000, 0.000, 0.000, 11:10:19.979, 1561475419979
243, -34921.27, 0.00, 0.00, 0.00, 0.00, 0.00, 0.00, 0.00, 0.000, 0.000, 0.000, 11:10:19.980, 1561475419980
244, -34757.36, 0.00, 0.00, 0.00, 0.00, 0.00, 0.00, 0.00, 0.000, 0.000, 0.000, 11:10:19.980, 1561475419980
245, -35326.51, 0.00, 0.00, 0.00, 0.00, 0.00, 0.00, 0.00, 0.000, 0.000, 0.000, 11:10:19.980, 1561475419980
246, -35550.54, 0.00, 0.00, 0.00, 0.00, 0.00, 0.00, 0.00, 0.000, 0.000, 0.000, 11:10:19.980, 1561475419980
247, -35006.94, 0.00, 0.00, 0.00, 0.00, 0.00, 0.00, 0.00, 0.000, 0.000, 0.000, 11:10:19.980, 1561475419980
248, -34726.38, 0.00, 0.00, 0.00, 0.00, 0.00, 0.00, 0.00, 0.000, 0.000, 0.000, 11:10:19.980, 1561475419980
249, -35219.96, 0.00, 0.00, 0.00, 0.00, 0.00, 0.00, 0.00, 0.086, -0.048, 1.028, 11:10:19.980, 1561475419980
250, -35575.71, 0.00, 0.00, 0.00, 0.00, 0.00, 0.00, 0.00, 0.000, 0.000, 0.000, 11:10:19.980, 1561475419980
251, -35077.46, 0.00, 0.00, 0.00, 0.00, 0.00, 0.00, 0.00, 0.000, 0.000, 0.000, 11:10:19.980, 1561475419980
252, -34670.04, 0.00, 0.00, 0.00, 0.00, 0.00, 0.00, 0.00, 0.000, 0.000, 0.000, 11:10:19.980, 1561475419980
253, -35109.18, 0.00, 0.00, 0.00, 0.00, 0.00, 0.00, 0.00, 0.000, 0.000, 0.000, 11:10:19.980, 1561475419980
254, -35578.50, 0.00, 0.00, 0.00, 0.00, 0.00, 0.00, 0.00, 0.000, 0.000, 0.000, 11:10:19.980, 1561475419980
255, -35220.89, 0.00, 0.00, 0.00, 0.00, 0.00, 0.00, 0.00, 0.000, 0.000, 0.000, 11:10:19.980, 1561475419980
0, -34718.38, 0.00, 0.00, 0.00, 0.00, 0.00, 0.00, 0.00, 0.000, 0.000, 0.000, 11:10:19.980, 1561475419980
1, -35019.73, 0.00, 0.00, 0.00, 0.00, 0.00, 0.00, 0.00, 0.000, 0.000, 0.000, 11:10:19.980, 1561475419980
2, -35560.21, 0.00, 0.00, 0.00, 0.00, 0.00, 0.00, 0.00, 0.000, 0.000, 0.000, 11:10:19.980, 1561475419980
3, -35329.81, 0.00, 0.00, 0.00, 0.00, 0.00, 0.00, 0.00, 0.000, 0.000, 0.000, 11:10:19.980, 1561475419980
4, -34762.01, 0.00, 0.00, 0.00, 0.00, 0.00, 0.00, 0.00, 0.080, -0.042, 1.026, 11:10:19.980, 1561475419980
5, -34924.02, 0.00, 0.00, 0.00, 0.00, 0.00, 0.00, 0.00, 0.000, 0.000, 0.000, 11:10:19.980, 1561475419980
6, -35514.60, 0.00, 0.00, 0.00, 0.00, 0.00, 0.00, 0.00, 0.000, 0.000, 0.000, 11:10:19.980, 1561475419980
7, -35414.41, 0.00, 0.00, 0.00, 0.00, 0.00, 0.00, 0.00, 0.000, 0.000, 0.000, 11:10:19.980, 1561475419980
8, -34801.38, 0.00, 0.00, 0.00, 0.00, 0.00, 0.00, 0.00, 0.000, 0.000, 0.000, 11:10:19.980, 1561475419980
9, -34806.71, 0.00, 0.00, 0.00, 0.00, 0.00, 0.00, 0.00, 0.000, 0.000, 0.000, 11:10:19.980, 1561475419980
10, -35412.58, 0.00, 0.00, 0.00, 0.00, 0.00, 0.00, 0.00, 0.000, 0.000, 0.000, 11:10:19.981, 1561475419981
11, -35485.20, 0.00, 0.00, 0.00, 0.00, 0.00, 0.00, 0.00, 0.000, 0.000, 0.000, 11:10:19.981, 1561475419981
12, -34896.55, 0.00, 0.00, 0.00, 0.00, 0.00, 0.00, 0.00, 0.000, 0.000, 0.000, 11:10:19.981, 1561475419981
13, -34740.11, 0.00, 0.00, 0.00, 0.00, 0.00, 0.00, 0.00, 0.000, 0.000, 0.000, 11:10:19.981, 1561475419981
14, -35328.16, 0.00, 0.00, 0.00, 0.00, 0.00, 0.00, 0.00, 0.080, -0.048, 1.024, 11:10:19.981, 1561475419981
15, -35557.29, 0.00, 0.00, 0.00, 0.00, 0.00, 0.00, 0.00, 0.000, 0.000, 0.000, 11:10:19.981, 1561475419981
16, -34982.74, 0.00, 0.00, 0.00, 0.00, 0.00, 0.00, 0.00, 0.000, 0.000, 0.000, 11:10:19.981, 1561475419981
17, -34671.58, 0.00, 0.00, 0.00, 0.00, 0.00, 0.00, 0.00, 0.000, 0.000, 0.000, 11:10:19.981, 1561475419981
18, -35193.51, 0.00, 0.00, 0.00, 0.00, 0.00, 0.00, 0.00, 0.000, 0.000, 0.000, 11:10:19.981, 1561475419981
19, -35586.21, 0.00, 0.00, 0.00, 0.00, 0.00, 0.00, 0.00, 0.000, 0.000, 0.000, 11:10:19.981, 1561475419981
20, -35106.68, 0.00, 0.00, 0.00, 0.00, 0.00, 0.00, 0.00, 0.000, 0.000, 0.000, 11:10:19.981, 1561475419981
21, -34667.64, 0.00, 0.00, 0.00, 0.00, 0.00, 0.00, 0.00, 0.000, 0.000, 0.000, 11:10:19.981, 1561475419981
22, -35098.54, 0.00, 0.00, 0.00, 0.00, 0.00, 0.00, 0.00, 0.000, 0.000, 0.000, 11:10:19.981, 1561475419981
23, -35584.29, 0.00, 0.00, 0.00, 0.00, 0.00, 0.00, 0.00, 0.000, 0.000, 0.000, 11:10:19.981, 1561475419981
24, -35185.80, 0.00, 0.00, 0.00, 0.00, 0.00, 0.00, 0.00, 0.086, -0.046, 1.028, 11:10:19.981, 1561475419981
25, -34676.23, 0.00, 0.00, 0.00, 0.00, 0.00, 0.00, 0.00, 0.000, 0.000, 0.000, 11:10:19.981, 1561475419981
26, -35018.90, 0.00, 0.00, 0.00, 0.00, 0.00, 0.00, 0.00, 0.000, 0.000, 0.000, 11:10:19.981, 1561475419981
27, -35598.04, 0.00, 0.00, 0.00, 0.00, 0.00, 0.00, 0.00, 0.000, 0.000, 0.000, 11:10:19.981, 1561475419981
28, -35366.83, 0.00, 0.00, 0.00, 0.00, 0.00, 0.00, 0.00, 0.000, 0.000, 0.000, 11:10:19.981, 1561475419981
29, -34759.62, 0.00, 0.00, 0.00, 0.00, 0.00, 0.00, 0.00, 0.000, 0.000, 0.000, 11:10:19.981, 1561475419981
30, -34906.00, 0.00, 0.00, 0.00, 0.00, 0.00, 0.00, 0.00, 0.000, 0.000, 0.000, 11:10:19.981, 1561475419981
31, -35532.93, 0.00, 0.00, 0.00, 0.00, 0.00, 0.00, 0.00, 0.000, 0.000, 0.000, 11:10:19.981, 1561475419981
32, -35414.80, 0.00, 0.00, 0.00, 0.00, 0.00, 0.00, 0.00, 0.000, 0.000, 0.000, 11:10:19.982, 1561475419982
33, -34753.39, 0.00, 0.00, 0.00, 0.00, 0.00, 0.00, 0.00, 0.000, 0.000, 0.000, 11:10:19.982, 1561475419982
34, -34745.72, 0.00, 0.00, 0.00, 0.00, 0.00, 0.00, 0.00, 0.090, -0.046, 1.030, 11:10:19.982, 1561475419982
35, -35372.57, 0.00, 0.00, 0.00, 0.00, 0.00, 0.00, 0.00, 0.000, 0.000, 0.000, 11:10:19.982, 1561475419982
36, -35439.74, 0.00, 0.00, 0.00, 0.00, 0.00, 0.00, 0.00, 0.000, 0.000, 0.000, 11:10:19.982, 1561475419982
37, -34821.76, 0.00, 0.00, 0.00, 0.00, 0.00, 0.00, 0.00, 0.000, 0.000, 0.000, 11:10:19.982, 1561475419982
38, -34636.55, 0.00, 0.00, 0.00, 0.00, 0.00, 0.00, 0.00, 0.000, 0.000, 0.000, 11:10:19.982, 1561475419982
39, -35213.47, 0.00, 0.00, 0.00, 0.00, 0.00, 0.00, 0.00, 0.000, 0.000, 0.000, 11:10:19.982, 1561475419982
40, -35467.08, 0.00, 0.00, 0.00, 0.00, 0.00, 0.00, 0.00, 0.000, 0.000, 0.000, 11:10:19.982, 1561475419982
41, -34922.72, 0.00, 0.00, 0.00, 0.00, 0.00, 0.00, 0.00, 0.000, 0.000, 0.000, 11:10:19.982, 1561475419982
42, -34650.93, 0.00, 0.00, 0.00, 0.00, 0.00, 0.00, 0.00, 0.000, 0.000, 0.000, 11:10:19.982, 1561475419982
43, -35146.22, 0.00, 0.00, 0.00, 0.00, 0.00, 0.00, 0.00, 0.000, 0.000, 0.000, 11:10:19.982, 1561475419982
44, -35499.24, 0.00, 0.00, 0.00, 0.00, 0.00, 0.00, 0.00, 0.088, -0.042, 1.026, 11:10:19.982, 1561475419982
45, -35022.79, 0.00, 0.00, 0.00, 0.00, 0.00, 0.00, 0.00, 0.000, 0.000, 0.000, 11:10:19.982, 1561475419982
46, -34633.82, 0.00, 0.00, 0.00, 0.00, 0.00, 0.00, 0.00, 0.000, 0.000, 0.000, 11:10:19.982, 1561475419982
47, -35091.70, 0.00, 0.00, 0.00, 0.00, 0.00, 0.00, 0.00, 0.000, 0.000, 0.000, 11:10:19.982, 1561475419982
48, -35574.52, 0.00, 0.00, 0.00, 0.00, 0.00, 0.00, 0.00, 0.000, 0.000, 0.000, 11:10:19.982, 1561475419982
49, -35173.17, 0.00, 0.00, 0.00, 0.00, 0.00, 0.00, 0.00, 0.000, 0.000, 0.000, 11:10:19.982, 1561475419982
50, -34625.87, 0.00, 0.00, 0.00, 0.00, 0.00, 0.00, 0.00, 0.000, 0.000, 0.000, 11:10:19.982, 1561475419982
51, -34934.23, 0.00, 0.00, 0.00, 0.00, 0.00, 0.00, 0.00, 0.000, 0.000, 0.000, 11:10:19.982, 1561475419982
52, -35505.34, 0.00, 0.00, 0.00, 0.00, 0.00, 0.00, 0.00, 0.000, 0.000, 0.000, 11:10:19.982, 1561475419982
53, -35269.91, 0.00, 0.00, 0.00, 0.00, 0.00, 0.00, 0.00, 0.000, 0.000, 0.000, 11:10:19.982, 1561475419982
54, -34684.45, 0.00, 0.00, 0.00, 0.00, 0.00, 0.00, 0.00, 0.082, -0.046, 1.028, 11:10:19.982, 1561475419982
55, -34849.59, 0.00, 0.00, 0.00, 0.00, 0.00, 0.00, 0.00, 0.000, 0.000, 0.000, 11:10:19.983, 1561475419983
56, -35461.87, 0.00, 0.00, 0.00, 0.00, 0.00, 0.00, 0.00, 0.000, 0.000, 0.000, 11:10:19.983, 1561475419983
57, -35362.00, 0.00, 0.00, 0.00, 0.00, 0.00, 0.00, 0.00, 0.000, 0.000, 0.000, 11:10:19.983, 1561475419983
58, -34735.41, 0.00, 0.00, 0.00, 0.00, 0.00, 0.00, 0.00, 0.000, 0.000, 0.000, 11:10:19.983, 1561475419983
59, -34756.11, 0.00, 0.00, 0.00, 0.00, 0.00, 0.00, 0.00, 0.000, 0.000, 0.000, 11:10:19.983, 1561475419983
60, -35374.90, 0.00, 0.00, 0.00, 0.00, 0.00, 0.00, 0.00, 0.000, 0.000, 0.000, 11:10:19.983, 1561475419983
61, -35472.75, 0.00, 0.00, 0.00, 0.00, 0.00, 0.00, 0.00, 0.000, 0.000, 0.000, 11:10:19.983, 1561475419983
62, -34873.86, 0.00, 0.00, 0.00, 0.00, 0.00, 0.00, 0.00, 0.000, 0.000, 0.000, 11:10:19.983, 1561475419983
63, -34688.68, 0.00, 0.00, 0.00, 0.00, 0.00, 0.00, 0.00, 0.000, 0.000, 0.000, 11:10:19.983, 1561475419983
64, -35260.97, 0.00, 0.00, 0.00, 0.00, 0.00, 0.00, 0.00, 0.000, 0.000, 0.000, 11:10:19.983, 1561475419983
65, -35521.21, 0.00, 0.00, 0.00, 0.00, 0.00, 0.00, 0.00, 0.084, -0.042, 1.026, 11:10:19.983, 1561475419983
66, -34974.38, 0.00, 0.00, 0.00, 0.00, 0.00, 0.00, 0.00, 0.000, 0.000, 0.000, 11:10:19.983, 1561475419983
67, -34651.82, 0.00, 0.00, 0.00, 0.00, 0.00, 0.00, 0.00, 0.000, 0.000, 0.000, 11:10:19.983, 1561475419983
68, -35178.61, 0.00, 0.00, 0.00, 0.00, 0.00, 0.00, 0.00, 0.000, 0.000, 0.000, 11:10:19.983, 1561475419983
69, -35561.18, 0.00, 0.00, 0.00, 0.00, 0.00, 0.00, 0.00, 0.000, 0.000, 0.000, 11:10:19.983, 1561475419983
70, -35061.28, 0.00, 0.00, 0.00, 0.00, 0.00, 0.00, 0.00, 0.000, 0.000, 0.000, 11:10:19.983, 1561475419983
71, -34612.66, 0.00, 0.00, 0.00, 0.00, 0.00, 0.00, 0.00, 0.000, 0.000, 0.000, 11:10:19.983, 1561475419983
72, -35041.14, 0.00, 0.00, 0.00, 0.00, 0.00, 0.00, 0.00, 0.000, 0.000, 0.000, 11:10:19.983, 1561475419983
73, -35530.46, 0.00, 0.00, 0.00, 0.00, 0.00, 0.00, 0.00, 0.000, 0.000, 0.000, 11:10:19.983, 1561475419983
74, -35176.46, 0.00, 0.00, 0.00, 0.00, 0.00, 0.00, 0.00, 0.000, 0.000, 0.000, 11:10:19.983, 1561475419983
75, -34639.21, 0.00, 0.00, 0.00, 0.00, 0.00, 0.00, 0.00, 0.088, -0.042, 1.036, 11:10:20.455, 1561475420455
76, -34961.01, 0.00, 0.00, 0.00, 0.00, 0.00, 0.00, 0.00, 0.000, 0.000, 0.000, 11:10:20.455, 1561475420455
77, -35537.04, 0.00, 0.00, 0.00, 0.00, 0.00, 0.00, 0.00, 0.000, 0.000, 0.000, 11:10:20.455, 1561475420455
78, -35312.02, 0.00, 0.00, 0.00, 0.00, 0.00, 0.00, 0.00, 0.000, 0.000, 0.000, 11:10:20.455, 1561475420455
79, -34720.37, 0.00, 0.00, 0.00, 0.00, 0.00, 0.00, 0.00, 0.000, 0.000, 0.000, 11:10:20.455, 1561475420455
80, -34863.96, 0.00, 0.00, 0.00, 0.00, 0.00, 0.00, 0.00, 0.000, 0.000, 0.000, 11:10:20.455, 1561475420455
81, -35478.74, 0.00, 0.00, 0.00, 0.00, 0.00, 0.00, 0.00, 0.000, 0.000, 0.000, 11:10:20.455, 1561475420455
82, -35403.64, 0.00, 0.00, 0.00, 0.00, 0.00, 0.00, 0.00, 0.000, 0.000, 0.000, 11:10:20.455, 1561475420455
83, -34781.68, 0.00, 0.00, 0.00, 0.00, 0.00, 0.00, 0.00, 0.000, 0.000, 0.000, 11:10:20.456, 1561475420456
84, -34795.72, 0.00, 0.00, 0.00, 0.00, 0.00, 0.00, 0.00, 0.000, 0.000, 0.000, 11:10:20.456, 1561475420456
85, -35406.13, 0.00, 0.00, 0.00, 0.00, 0.00, 0.00, 0.00, 0.088, -0.048, 1.036, 11:10:20.456, 1561475420456
86, -35474.63, 0.00, 0.00, 0.00, 0.00, 0.00, 0.00, 0.00, 0.000, 0.000, 0.000, 11:10:20.456, 1561475420456
87, -34851.71, 0.00, 0.00, 0.00, 0.00, 0.00, 0.00, 0.00, 0.000, 0.000, 0.000, 11:10:20.456, 1561475420456
88, -34680.12, 0.00, 0.00, 0.00, 0.00, 0.00, 0.00, 0.00, 0.000, 0.000, 0.000, 11:10:20.456, 1561475420456
89, -35276.75, 0.00, 0.00, 0.00, 0.00, 0.00, 0.00, 0.00, 0.000, 0.000, 0.000, 11:10:20.457, 1561475420457
90, -35524.27, 0.00, 0.00, 0.00, 0.00, 0.00, 0.00, 0.00, 0.000, 0.000, 0.000, 11:10:20.457, 1561475420457
91, -34982.07, 0.00, 0.00, 0.00, 0.00, 0.00, 0.00, 0.00, 0.000, 0.000, 0.000, 11:10:20.457, 1561475420457
92, -34701.64, 0.00, 0.00, 0.00, 0.00, 0.00, 0.00, 0.00, 0.000, 0.000, 0.000, 11:10:20.457, 1561475420457
93, -35250.53, 0.00, 0.00, 0.00, 0.00, 0.00, 0.00, 0.00, 0.000, 0.000, 0.000, 11:10:20.457, 1561475420457
94, -35640.13, 0.00, 0.00, 0.00, 0.00, 0.00, 0.00, 0.00, 0.000, 0.000, 0.000, 11:10:20.457, 1561475420457
95, -35144.96, 0.00, 0.00, 0.00, 0.00, 0.00, 0.00, 0.00, 0.080, -0.052, 1.034, 11:10:20.457, 1561475420457
96, -34714.23, 0.00, 0.00, 0.00, 0.00, 0.00, 0.00, 0.00, 0.000, 0.000, 0.000, 11:10:20.457, 1561475420457
97, -35177.98, 0.00, 0.00, 0.00, 0.00, 0.00, 0.00, 0.00, 0.000, 0.000, 0.000, 11:10:20.457, 1561475420457
98, -35673.25, 0.00, 0.00, 0.00, 0.00, 0.00, 0.00, 0.00, 0.000, 0.000, 0.000, 11:10:20.457, 1561475420457
99, -35280.19, 0.00, 0.00, 0.00, 0.00, 0.00, 0.00, 0.00, 0.000, 0.000, 0.000, 11:10:20.457, 1561475420457
100, -34740.53, 0.00, 0.00, 0.00, 0.00, 0.00, 0.00, 0.00, 0.000, 0.000, 0.000, 11:10:20.457, 1561475420457
101, -35051.71, 0.00, 0.00, 0.00, 0.00, 0.00, 0.00, 0.00, 0.000, 0.000, 0.000, 11:10:20.457, 1561475420457
102, -35626.62, 0.00, 0.00, 0.00, 0.00, 0.00, 0.00, 0.00, 0.000, 0.000, 0.000, 11:10:20.457, 1561475420457
103, -35386.86, 0.00, 0.00, 0.00, 0.00, 0.00, 0.00, 0.00, 0.000, 0.000, 0.000, 11:10:20.458, 1561475420458
104, -34766.46, 0.00, 0.00, 0.00, 0.00, 0.00, 0.00, 0.00, 0.000, 0.000, 0.000, 11:10:20.458, 1561475420458
105, -34945.45, 0.00, 0.00, 0.00, 0.00, 0.00, 0.00, 0.00, 0.084, -0.054, 1.038, 11:10:20.458, 1561475420458
106, -35571.01, 0.00, 0.00, 0.00, 0.00, 0.00, 0.00, 0.00, 0.000, 0.000, 0.000, 11:10:20.458, 1561475420458
107, -35497.07, 0.00, 0.00, 0.00, 0.00, 0.00, 0.00, 0.00, 0.000, 0.000, 0.000, 11:10:20.458, 1561475420458
108, -34865.95, 0.00, 0.00, 0.00, 0.00, 0.00, 0.00, 0.00, 0.000, 0.000, 0.000, 11:10:20.458, 1561475420458
109, -34845.92, 0.00, 0.00, 0.00, 0.00, 0.00, 0.00, 0.00, 0.000, 0.000, 0.000, 11:10:20.458, 1561475420458
110, -35473.87, 0.00, 0.00, 0.00, 0.00, 0.00, 0.00, 0.00, 0.000, 0.000, 0.000, 11:10:20.458, 1561475420458
111, -35585.34, 0.00, 0.00, 0.00, 0.00, 0.00, 0.00, 0.00, 0.000, 0.000, 0.000, 11:10:20.458, 1561475420458
112, -34969.39, 0.00, 0.00, 0.00, 0.00, 0.00, 0.00, 0.00, 0.000, 0.000, 0.000, 11:10:20.458, 1561475420458
113, -34774.20, 0.00, 0.00, 0.00, 0.00, 0.00, 0.00, 0.00, 0.000, 0.000, 0.000, 11:10:20.458, 1561475420458
114, -35391.97, 0.00, 0.00, 0.00, 0.00, 0.00, 0.00, 0.00, 0.000, 0.000, 0.000, 11:10:20.459, 1561475420459
115, -35654.74, 0.00, 0.00, 0.00, 0.00, 0.00, 0.00, 0.00, 0.000, 0.000, 0.000, 11:10:20.459, 1561475420459
116, -35065.13, 0.00, 0.00, 0.00, 0.00, 0.00, 0.00, 0.00, 0.084, -0.054, 1.034, 11:10:20.459, 1561475420459
117, -34734.07, 0.00, 0.00, 0.00, 0.00, 0.00, 0.00, 0.00, 0.000, 0.000, 0.000, 11:10:20.459, 1561475420459
118, -35278.47, 0.00, 0.00, 0.00, 0.00, 0.00, 0.00, 0.00, 0.000, 0.000, 0.000, 11:10:20.459, 1561475420459
119, -35693.59, 0.00, 0.00, 0.00, 0.00, 0.00, 0.00, 0.00, 0.000, 0.000, 0.000, 11:10:20.459, 1561475420459
120, -35200.29, 0.00, 0.00, 0.00, 0.00, 0.00, 0.00, 0.00, 0.000, 0.000, 0.000, 11:10:20.459, 1561475420459
121, -34742.86, 0.00, 0.00, 0.00, 0.00, 0.00, 0.00, 0.00, 0.000, 0.000, 0.000, 11:10:20.459, 1561475420459
122, -35180.88, 0.00, 0.00, 0.00, 0.00, 0.00, 0.00, 0.00, 0.000, 0.000, 0.000, 11:10:20.459, 1561475420459
123, -35691.98, 0.00, 0.00, 0.00, 0.00, 0.00, 0.00, 0.00, 0.000, 0.000, 0.000, 11:10:20.459, 1561475420459
124, -35310.26, 0.00, 0.00, 0.00, 0.00, 0.00, 0.00, 0.00, 0.000, 0.000, 0.000, 11:10:20.459, 1561475420459
125, -34753.05, 0.00, 0.00, 0.00, 0.00, 0.00, 0.00, 0.00, 0.000, 0.000, 0.000, 11:10:20.460, 1561475420460
126, -35049.08, 0.00, 0.00, 0.00, 0.00, 0.00, 0.00, 0.00, 0.078, -0.050, 1.042, 11:10:20.460, 1561475420460
127, -35646.79, 0.00, 0.00, 0.00, 0.00, 0.00, 0.00, 0.00, 0.000, 0.000, 0.000, 11:10:20.460, 1561475420460
128, -35396.04, 0.00, 0.00, 0.00, 0.00, 0.00, 0.00, 0.00, 0.000, 0.000, 0.000, 11:10:20.460, 1561475420460
129, -34752.40, 0.00, 0.00, 0.00, 0.00, 0.00, 0.00, 0.00, 0.000, 0.000, 0.000, 11:10:20.460, 1561475420460
130, -34907.07, 0.00, 0.00, 0.00, 0.00, 0.00, 0.00, 0.00, 0.000, 0.000, 0.000, 11:10:20.460, 1561475420460
131, -35584.49, 0.00, 0.00, 0.00, 0.00, 0.00, 0.00, 0.00, 0.000, 0.000, 0.000, 11:10:20.460, 1561475420460
132, -35530.38, 0.00, 0.00, 0.00, 0.00, 0.00, 0.00, 0.00, 0.000, 0.000, 0.000, 11:10:20.460, 1561475420460
133, -34877.66, 0.00, 0.00, 0.00, 0.00, 0.00, 0.00, 0.00, 0.000, 0.000, 0.000, 11:10:20.460, 1561475420460
134, -34874.20, 0.00, 0.00, 0.00, 0.00, 0.00, 0.00, 0.00, 0.000, 0.000, 0.000, 11:10:20.460, 1561475420460
135, -35525.23, 0.00, 0.00, 0.00, 0.00, 0.00, 0.00, 0.00, 0.000, 0.000, 0.000, 11:10:20.460, 1561475420460
136, -35614.82, 0.00, 0.00, 0.00, 0.00, 0.00, 0.00, 0.00, 0.086, -0.048, 1.042, 11:10:20.460, 1561475420460
137, -34973.35, 0.00, 0.00, 0.00, 0.00, 0.00, 0.00, 0.00, 0.000, 0.000, 0.000, 11:10:20.460, 1561475420460
138, -34810.63, 0.00, 0.00, 0.00, 0.00, 0.00, 0.00, 0.00, 0.000, 0.000, 0.000, 11:10:20.460, 1561475420460
139, -35392.58, 0.00, 0.00, 0.00, 0.00, 0.00, 0.00, 0.00, 0.000, 0.000, 0.000, 11:10:20.461, 1561475420461
140, -35646.92, 0.00, 0.00, 0.00, 0.00, 0.00, 0.00, 0.00, 0.000, 0.000, 0.000, 11:10:20.461, 1561475420461
141, -35078.40, 0.00, 0.00, 0.00, 0.00, 0.00, 0.00, 0.00, 0.000, 0.000, 0.000, 11:10:20.461, 1561475420461
142, -34755.24, 0.00, 0.00, 0.00, 0.00, 0.00, 0.00, 0.00, 0.000, 0.000, 0.000, 11:10:20.461, 1561475420461
143, -35298.63, 0.00, 0.00, 0.00, 0.00, 0.00, 0.00, 0.00, 0.000, 0.000, 0.000, 11:10:20.461, 1561475420461
144, -35694.93, 0.00, 0.00, 0.00, 0.00, 0.00, 0.00, 0.00, 0.000, 0.000, 0.000, 11:10:20.461, 1561475420461
145, -35187.95, 0.00, 0.00, 0.00, 0.00, 0.00, 0.00, 0.00, 0.000, 0.000, 0.000, 11:10:20.461, 1561475420461
146, -34696.93, 0.00, 0.00, 0.00, 0.00, 0.00, 0.00, 0.00, 0.086, -0.050, 1.034, 11:10:20.461, 1561475420461
147, -35140.90, 0.00, 0.00, 0.00, 0.00, 0.00, 0.00, 0.00, 0.000, 0.000, 0.000, 11:10:20.461, 1561475420461
148, -35705.17, 0.00, 0.00, 0.00, 0.00, 0.00, 0.00, 0.00, 0.000, 0.000, 0.000, 11:10:20.461, 1561475420461
149, -35336.56, 0.00, 0.00, 0.00, 0.00, 0.00, 0.00, 0.00, 0.000, 0.000, 0.000, 11:10:20.463, 1561475420463
150, -34783.85, 0.00, 0.00, 0.00, 0.00, 0.00, 0.00, 0.00, 0.000, 0.000, 0.000, 11:10:20.463, 1561475420463
151, -35069.42, 0.00, 0.00, 0.00, 0.00, 0.00, 0.00, 0.00, 0.000, 0.000, 0.000, 11:10:20.463, 1561475420463
152, -35656.78, 0.00, 0.00, 0.00, 0.00, 0.00, 0.00, 0.00, 0.000, 0.000, 0.000, 11:10:20.464, 1561475420464
153, -35436.39, 0.00, 0.00, 0.00, 0.00, 0.00, 0.00, 0.00, 0.000, 0.000, 0.000, 11:10:20.464, 1561475420464
154, -34820.48, 0.00, 0.00, 0.00, 0.00, 0.00, 0.00, 0.00, 0.000, 0.000, 0.000, 11:10:20.464, 1561475420464
155, -34971.89, 0.00, 0.00, 0.00, 0.00, 0.00, 0.00, 0.00, 0.000, 0.000, 0.000, 11:10:20.464, 1561475420464
156, -35608.18, 0.00, 0.00, 0.00, 0.00, 0.00, 0.00, 0.00, 0.086, -0.052, 1.032, 11:10:20.464, 1561475420464
157, -35522.38, 0.00, 0.00, 0.00, 0.00, 0.00, 0.00, 0.00, 0.000, 0.000, 0.000, 11:10:20.464, 1561475420464
158, -34875.80, 0.00, 0.00, 0.00, 0.00, 0.00, 0.00, 0.00, 0.000, 0.000, 0.000, 11:10:20.464, 1561475420464
159, -34867.96, 0.00, 0.00, 0.00, 0.00, 0.00, 0.00, 0.00, 0.000, 0.000, 0.000, 11:10:20.464, 1561475420464
160, -35477.29, 0.00, 0.00, 0.00, 0.00, 0.00, 0.00, 0.00, 0.000, 0.000, 0.000, 11:10:20.464, 1561475420464
161, -35576.78, 0.00, 0.00, 0.00, 0.00, 0.00, 0.00, 0.00, 0.000, 0.000, 0.000, 11:10:20.464, 1561475420464
162, -34988.57, 0.00, 0.00, 0.00, 0.00, 0.00, 0.00, 0.00, 0.000, 0.000, 0.000, 11:10:20.464, 1561475420464
163, -34806.89, 0.00, 0.00, 0.00, 0.00, 0.00, 0.00, 0.00, 0.000, 0.000, 0.000, 11:10:20.464, 1561475420464
164, -35389.40, 0.00, 0.00, 0.00, 0.00, 0.00, 0.00, 0.00, 0.000, 0.000, 0.000, 11:10:20.464, 1561475420464
165, -35664.35, 0.00, 0.00, 0.00, 0.00, 0.00, 0.00, 0.00, 0.000, 0.000, 0.000, 11:10:20.465, 1561475420465
166, -35113.41, 0.00, 0.00, 0.00, 0.00, 0.00, 0.00, 0.00, 0.084, -0.052, 1.032, 11:10:20.465, 1561475420465
167, -34759.42, 0.00, 0.00, 0.00, 0.00, 0.00, 0.00, 0.00, 0.000, 0.000, 0.000, 11:10:20.465, 1561475420465
168, -35289.29, 0.00, 0.00, 0.00, 0.00, 0.00, 0.00, 0.00, 0.000, 0.000, 0.000, 11:10:20.465, 1561475420465
169, -35700.43, 0.00, 0.00, 0.00, 0.00, 0.00, 0.00, 0.00, 0.000, 0.000, 0.000, 11:10:20.465, 1561475420465
170, -35201.09, 0.00, 0.00, 0.00, 0.00, 0.00, 0.00, 0.00, 0.000, 0.000, 0.000, 11:10:20.465, 1561475420465
171, -34734.27, 0.00, 0.00, 0.00, 0.00, 0.00, 0.00, 0.00, 0.000, 0.000, 0.000, 11:10:20.465, 1561475420465
172, -35161.71, 0.00, 0.00, 0.00, 0.00, 0.00, 0.00, 0.00, 0.000, 0.000, 0.000, 11:10:20.465, 1561475420465
173, -35674.01, 0.00, 0.00, 0.00, 0.00, 0.00, 0.00, 0.00, 0.000, 0.000, 0.000, 11:10:20.465, 1561475420465
174, -35313.25, 0.00, 0.00, 0.00, 0.00, 0.00, 0.00, 0.00, 0.000, 0.000, 0.000, 11:10:20.465, 1561475420465
175, -34780.99, 0.00, 0.00, 0.00, 0.00, 0.00, 0.00, 0.00, 0.000, 0.000, 0.000, 11:10:20.465, 1561475420465
176, -35068.86, 0.00, 0.00, 0.00, 0.00, 0.00, 0.00, 0.00, 0.000, 0.000, 0.000, 11:10:20.465, 1561475420465
177, -35647.21, 0.00, 0.00, 0.00, 0.00, 0.00, 0.00, 0.00, 0.084, -0.052, 1.032, 11:10:20.465, 1561475420465
178, -35425.61, 0.00, 0.00, 0.00, 0.00, 0.00, 0.00, 0.00, 0.000, 0.000, 0.000, 11:10:20.465, 1561475420465
179, -34831.71, 0.00, 0.00, 0.00, 0.00, 0.00, 0.00, 0.00, 0.000, 0.000, 0.000, 11:10:20.466, 1561475420466
180, -34991.68, 0.00, 0.00, 0.00, 0.00, 0.00, 0.00, 0.00, 0.000, 0.000, 0.000, 11:10:20.466, 1561475420466
181, -35608.09, 0.00, 0.00, 0.00, 0.00, 0.00, 0.00, 0.00, 0.000, 0.000, 0.000, 11:10:20.466, 1561475420466
182, -35531.05, 0.00, 0.00, 0.00, 0.00, 0.00, 0.00, 0.00, 0.000, 0.000, 0.000, 11:10:20.466, 1561475420466
183, -34886.02, 0.00, 0.00, 0.00, 0.00, 0.00, 0.00, 0.00, 0.000, 0.000, 0.000, 11:10:20.466, 1561475420466
184, -34874.69, 0.00, 0.00, 0.00, 0.00, 0.00, 0.00, 0.00, 0.000, 0.000, 0.000, 11:10:20.466, 1561475420466
185, -35515.78, 0.00, 0.00, 0.00, 0.00, 0.00, 0.00, 0.00, 0.000, 0.000, 0.000, 11:10:20.466, 1561475420466
186, -35625.89, 0.00, 0.00, 0.00, 0.00, 0.00, 0.00, 0.00, 0.000, 0.000, 0.000, 11:10:20.466, 1561475420466
187, -34998.36, 0.00, 0.00, 0.00, 0.00, 0.00, 0.00, 0.00, 0.084, -0.046, 1.036, 11:10:20.466, 1561475420466
188, -34806.09, 0.00, 0.00, 0.00, 0.00, 0.00, 0.00, 0.00, 0.000, 0.000, 0.000, 11:10:20.466, 1561475420466
189, -35406.75, 0.00, 0.00, 0.00, 0.00, 0.00, 0.00, 0.00, 0.000, 0.000, 0.000, 11:10:20.466, 1561475420466
190, -35658.00, 0.00, 0.00, 0.00, 0.00, 0.00, 0.00, 0.00, 0.000, 0.000, 0.000, 11:10:20.466, 1561475420466
191, -35097.87, 0.00, 0.00, 0.00, 0.00, 0.00, 0.00, 0.00, 0.000, 0.000, 0.000, 11:10:20.466, 1561475420466
192, -34753.16, 0.00, 0.00, 0.00, 0.00, 0.00, 0.00, 0.00, 0.000, 0.000, 0.000, 11:10:20.467, 1561475420467
193, -35274.92, 0.00, 0.00, 0.00, 0.00, 0.00, 0.00, 0.00, 0.000, 0.000, 0.000, 11:10:20.467, 1561475420467
194, -35694.26, 0.00, 0.00, 0.00, 0.00, 0.00, 0.00, 0.00, 0.000, 0.000, 0.000, 11:10:20.467, 1561475420467
195, -35197.36, 0.00, 0.00, 0.00, 0.00, 0.00, 0.00, 0.00, 0.000, 0.000, 0.000, 11:10:20.935, 1561475420935
196, -34729.40, 0.00, 0.00, 0.00, 0.00, 0.00, 0.00, 0.00, 0.000, 0.000, 0.000, 11:10:20.935, 1561475420935
197, -35157.75, 0.00, 0.00, 0.00, 0.00, 0.00, 0.00, 0.00, 0.082, -0.044, 1.030, 11:10:20.935, 1561475420935
198, -35695.49, 0.00, 0.00, 0.00, 0.00, 0.00, 0.00, 0.00, 0.000, 0.000, 0.000, 11:10:20.935, 1561475420935
199, -35357.24, 0.00, 0.00, 0.00, 0.00, 0.00, 0.00, 0.00, 0.000, 0.000, 0.000, 11:10:20.935, 1561475420935
200, -34779.56, 0.00, 0.00, 0.00, 0.00, 0.00, 0.00, 0.00, 0.000, 0.000, 0.000, 11:10:20.935, 1561475420935
201, -35071.56, 0.00, 0.00, 0.00, 0.00, 0.00, 0.00, 0.00, 0.000, 0.000, 0.000, 11:10:20.936, 1561475420936
202, -35671.04, 0.00, 0.00, 0.00, 0.00, 0.00, 0.00, 0.00, 0.000, 0.000, 0.000, 11:10:20.936, 1561475420936
203, -35448.77, 0.00, 0.00, 0.00, 0.00, 0.00, 0.00, 0.00, 0.000, 0.000, 0.000, 11:10:20.936, 1561475420936
204, -34833.32, 0.00, 0.00, 0.00, 0.00, 0.00, 0.00, 0.00, 0.000, 0.000, 0.000, 11:10:20.936, 1561475420936
205, -34970.15, 0.00, 0.00, 0.00, 0.00, 0.00, 0.00, 0.00, 0.000, 0.000, 0.000, 11:10:20.936, 1561475420936
206, -35617.04, 0.00, 0.00, 0.00, 0.00, 0.00, 0.00, 0.00, 0.000, 0.000, 0.000, 11:10:20.936, 1561475420936
207, -35549.35, 0.00, 0.00, 0.00, 0.00, 0.00, 0.00, 0.00, 0.086, -0.048, 1.024, 11:10:20.936, 1561475420936
208, -34879.27, 0.00, 0.00, 0.00, 0.00, 0.00, 0.00, 0.00, 0.000, 0.000, 0.000, 11:10:20.936, 1561475420936
209, -34856.65, 0.00, 0.00, 0.00, 0.00, 0.00, 0.00, 0.00, 0.000, 0.000, 0.000, 11:10:20.936, 1561475420936
210, -35509.50, 0.00, 0.00, 0.00, 0.00, 0.00, 0.00, 0.00, 0.000, 0.000, 0.000, 11:10:20.936, 1561475420936
211, -35630.51, 0.00, 0.00, 0.00, 0.00, 0.00, 0.00, 0.00, 0.000, 0.000, 0.000, 11:10:20.936, 1561475420936
212, -34979.43, 0.00, 0.00, 0.00, 0.00, 0.00, 0.00, 0.00, 0.000, 0.000, 0.000, 11:10:20.936, 1561475420936
213, -34778.73, 0.00, 0.00, 0.00, 0.00, 0.00, 0.00, 0.00, 0.000, 0.000, 0.000, 11:10:20.936, 1561475420936
214, -35408.29, 0.00, 0.00, 0.00, 0.00, 0.00, 0.00, 0.00, 0.000, 0.000, 0.000, 11:10:20.936, 1561475420936
215, -35723.07, 0.00, 0.00, 0.00, 0.00, 0.00, 0.00, 0.00, 0.000, 0.000, 0.000, 11:10:20.936, 1561475420936
216, -35150.17, 0.00, 0.00, 0.00, 0.00, 0.00, 0.00, 0.00, 0.000, 0.000, 0.000, 11:10:20.936, 1561475420936
217, -34788.99, 0.00, 0.00, 0.00, 0.00, 0.00, 0.00, 0.00, 0.086, -0.044, 1.026, 11:10:20.937, 1561475420937
218, -35295.66, 0.00, 0.00, 0.00, 0.00, 0.00, 0.00, 0.00, 0.000, 0.000, 0.000, 11:10:20.937, 1561475420937
219, -35700.27, 0.00, 0.00, 0.00, 0.00, 0.00, 0.00, 0.00, 0.000, 0.000, 0.000, 11:10:20.937, 1561475420937
220, -35234.48, 0.00, 0.00, 0.00, 0.00, 0.00, 0.00, 0.00, 0.000, 0.000, 0.000, 11:10:20.937, 1561475420937
221, -34761.03, 0.00, 0.00, 0.00, 0.00, 0.00, 0.00, 0.00, 0.000, 0.000, 0.000, 11:10:20.937, 1561475420937
222, -35161.46, 0.00, 0.00, 0.00, 0.00, 0.00, 0.00, 0.00, 0.000, 0.000, 0.000, 11:10:20.937, 1561475420937
223, -35675.82, 0.00, 0.00, 0.00, 0.00, 0.00, 0.00, 0.00, 0.000, 0.000, 0.000, 11:10:20.937, 1561475420937
224, -35343.32, 0.00, 0.00, 0.00, 0.00, 0.00, 0.00, 0.00, 0.000, 0.000, 0.000, 11:10:20.937, 1561475420937
225, -34785.75, 0.00, 0.00, 0.00, 0.00, 0.00, 0.00, 0.00, 0.000, 0.000, 0.000, 11:10:20.938, 1561475420938
226, -35064.39, 0.00, 0.00, 0.00, 0.00, 0.00, 0.00, 0.00, 0.000, 0.000, 0.000, 11:10:20.939, 1561475420939
227, -35655.93, 0.00, 0.00, 0.00, 0.00, 0.00, 0.00, 0.00, 0.000, 0.000, 0.000, 11:10:20.939, 1561475420939
228, -35444.97, 0.00, 0.00, 0.00, 0.00, 0.00, 0.00, 0.00, 0.086, -0.050, 1.032, 11:10:20.939, 1561475420939
229, -34840.80, 0.00, 0.00, 0.00, 0.00, 0.00, 0.00, 0.00, 0.000, 0.000, 0.000, 11:10:20.939, 1561475420939
230, -34979.99, 0.00, 0.00, 0.00, 0.00, 0.00, 0.00, 0.00, 0.000, 0.000, 0.000, 11:10:20.939, 1561475420939
231, -35583.98, 0.00, 0.00, 0.00, 0.00, 0.00, 0.00, 0.00, 0.000, 0.000, 0.000, 11:10:20.939, 1561475420939
232, -35537.39, 0.00, 0.00, 0.00, 0.00, 0.00, 0.00, 0.00, 0.000, 0.000, 0.000, 11:10:20.939, 1561475420939
233, -34898.49, 0.00, 0.00, 0.00, 0.00, 0.00, 0.00, 0.00, 0.000, 0.000, 0.000, 11:10:20.939, 1561475420939
234, -34863.33, 0.00, 0.00, 0.00, 0.00, 0.00, 0.00, 0.00, 0.000, 0.000, 0.000, 11:10:20.939, 1561475420939
235, -35523.07, 0.00, 0.00, 0.00, 0.00, 0.00, 0.00, 0.00, 0.000, 0.000, 0.000, 11:10:20.939, 1561475420939
236, -35660.91, 0.00, 0.00, 0.00, 0.00, 0.00, 0.00, 0.00, 0.000, 0.000, 0.000, 11:10:20.939, 1561475420939
237, -35051.27, 0.00, 0.00, 0.00, 0.00, 0.00, 0.00, 0.00, 0.000, 0.000, 0.000, 11:10:20.939, 1561475420939
238, -34824.33, 0.00, 0.00, 0.00, 0.00, 0.00, 0.00, 0.00, 0.084, -0.050, 1.026, 11:10:20.939, 1561475420939
239, -35401.79, 0.00, 0.00, 0.00, 0.00, 0.00, 0.00, 0.00, 0.000, 0.000, 0.000, 11:10:20.939, 1561475420939
240, -35694.30, 0.00, 0.00, 0.00, 0.00, 0.00, 0.00, 0.00, 0.000, 0.000, 0.000, 11:10:20.940, 1561475420940
241, -35142.04, 0.00, 0.00, 0.00, 0.00, 0.00, 0.00, 0.00, 0.000, 0.000, 0.000, 11:10:20.940, 1561475420940
242, -34782.31, 0.00, 0.00, 0.00, 0.00, 0.00, 0.00, 0.00, 0.000, 0.000, 0.000, 11:10:20.940, 1561475420940
243, -35293.61, 0.00, 0.00, 0.00, 0.00, 0.00, 0.00, 0.00, 0.000, 0.000, 0.000, 11:10:20.940, 1561475420940
244, -35688.05, 0.00, 0.00, 0.00, 0.00, 0.00, 0.00, 0.00, 0.000, 0.000, 0.000, 11:10:20.940, 1561475420940
245, -35212.27, 0.00, 0.00, 0.00, 0.00, 0.00, 0.00, 0.00, 0.000, 0.000, 0.000, 11:10:20.940, 1561475420940
246, -34746.46, 0.00, 0.00, 0.00, 0.00, 0.00, 0.00, 0.00, 0.000, 0.000, 0.000, 11:10:20.940, 1561475420940
247, -35194.41, 0.00, 0.00, 0.00, 0.00, 0.00, 0.00, 0.00, 0.000, 0.000, 0.000, 11:10:20.941, 1561475420941
248, -35746.20, 0.00, 0.00, 0.00, 0.00, 0.00, 0.00, 0.00, 0.084, -0.048, 1.026, 11:10:20.941, 1561475420941
249, -35381.65, 0.00, 0.00, 0.00, 0.00, 0.00, 0.00, 0.00, 0.000, 0.000, 0.000, 11:10:20.941, 1561475420941
250, -34796.79, 0.00, 0.00, 0.00, 0.00, 0.00, 0.00, 0.00, 0.000, 0.000, 0.000, 11:10:20.942, 1561475420942
251, -35059.80, 0.00, 0.00, 0.00, 0.00, 0.00, 0.00, 0.00, 0.000, 0.000, 0.000, 11:10:20.942, 1561475420942
252, -35662.97, 0.00, 0.00, 0.00, 0.00, 0.00, 0.00, 0.00, 0.000, 0.000, 0.000, 11:10:20.942, 1561475420942
253, -35492.69, 0.00, 0.00, 0.00, 0.00, 0.00, 0.00, 0.00, 0.000, 0.000, 0.000, 11:10:20.942, 1561475420942
254, -34893.35, 0.00, 0.00, 0.00, 0.00, 0.00, 0.00, 0.00, 0.000, 0.000, 0.000, 11:10:20.943, 1561475420943
255, -34995.88, 0.00, 0.00, 0.00, 0.00, 0.00, 0.00, 0.00, 0.000, 0.000, 0.000, 11:10:20.943, 1561475420943
0, -35613.52, 0.00, 0.00, 0.00, 0.00, 0.00, 0.00, 0.00, 0.000, 0.000, 0.000, 11:10:20.943, 1561475420943
1, -35544.97, 0.00, 0.00, 0.00, 0.00, 0.00, 0.00, 0.00, 0.000, 0.000, 0.000, 11:10:20.943, 1561475420943
2, -34919.04, 0.00, 0.00, 0.00, 0.00, 0.00, 0.00, 0.00, 0.080, -0.054, 1.030, 11:10:20.943, 1561475420943
3, -34914.14, 0.00, 0.00, 0.00, 0.00, 0.00, 0.00, 0.00, 0.000, 0.000, 0.000, 11:10:20.943, 1561475420943
4, -35524.50, 0.00, 0.00, 0.00, 0.00, 0.00, 0.00, 0.00, 0.000, 0.000, 0.000, 11:10:20.943, 1561475420943
5, -35639.36, 0.00, 0.00, 0.00, 0.00, 0.00, 0.00, 0.00, 0.000, 0.000, 0.000, 11:10:20.943, 1561475420943
6, -35028.18, 0.00, 0.00, 0.00, 0.00, 0.00, 0.00, 0.00, 0.000, 0.000, 0.000, 11:10:20.943, 1561475420943
7, -34825.45, 0.00, 0.00, 0.00, 0.00, 0.00, 0.00, 0.00, 0.000, 0.000, 0.000, 11:10:20.943, 1561475420943
8, -35409.72, 0.00, 0.00, 0.00, 0.00, 0.00, 0.00, 0.00, 0.000, 0.000, 0.000, 11:10:20.943, 1561475420943
9, -35703.94, 0.00, 0.00, 0.00, 0.00, 0.00, 0.00, 0.00, 0.000, 0.000, 0.000, 11:10:20.943, 1561475420943
10, -35148.52, 0.00, 0.00, 0.00, 0.00, 0.00, 0.00, 0.00, 0.000, 0.000, 0.000, 11:10:20.944, 1561475420944
11, -34775.09, 0.00, 0.00, 0.00, 0.00, 0.00, 0.00, 0.00, 0.000, 0.000, 0.000, 11:10:20.944, 1561475420944
12, -35275.28, 0.00, 0.00, 0.00, 0.00, 0.00, 0.00, 0.00, 0.086, -0.048, 1.030, 11:10:20.944, 1561475420944
13, -35717.13, 0.00, 0.00, 0.00, 0.00, 0.00, 0.00, 0.00, 0.000, 0.000, 0.000, 11:10:20.944, 1561475420944
14, -35274.40, 0.00, 0.00, 0.00, 0.00, 0.00, 0.00, 0.00, 0.000, 0.000, 0.000, 11:10:20.944, 1561475420944
15, -34789.73, 0.00, 0.00, 0.00, 0.00, 0.00, 0.00, 0.00, 0.000, 0.000, 0.000, 11:10:20.944, 1561475420944
16, -35184.19, 0.00, 0.00, 0.00, 0.00, 0.00, 0.00, 0.00, 0.000, 0.000, 0.000, 11:10:20.944, 1561475420944
17, -35724.81, 0.00, 0.00, 0.00, 0.00, 0.00, 0.00, 0.00, 0.000, 0.000, 0.000, 11:10:20.944, 1561475420944
18, -35401.09, 0.00, 0.00, 0.00, 0.00, 0.00, 0.00, 0.00, 0.000, 0.000, 0.000, 11:10:20.944, 1561475420944
19, -34829.98, 0.00, 0.00, 0.00, 0.00, 0.00, 0.00, 0.00, 0.000, 0.000, 0.000, 11:10:20.945, 1561475420945
20, -35097.78, 0.00, 0.00, 0.00, 0.00, 0.00, 0.00, 0.00, 0.000, 0.000, 0.000, 11:10:20.945, 1561475420945
21, -35681.34, 0.00, 0.00, 0.00, 0.00, 0.00, 0.00, 0.00, 0.000, 0.000, 0.000, 11:10:20.945, 1561475420945
22, -35481.49, 0.00, 0.00, 0.00, 0.00, 0.00, 0.00, 0.00, 0.086, -0.050, 1.032, 11:10:20.945, 1561475420945
23, -34862.26, 0.00, 0.00, 0.00, 0.00, 0.00, 0.00, 0.00, 0.000, 0.000, 0.000, 11:10:20.945, 1561475420945
24, -34966.15, 0.00, 0.00, 0.00, 0.00, 0.00, 0.00, 0.00, 0.000, 0.000, 0.000, 11:10:20.945, 1561475420945
25, -35587.84, 0.00, 0.00, 0.00, 0.00, 0.00, 0.00, 0.00, 0.000, 0.000, 0.000, 11:10:20.945, 1561475420945
26, -35570.03, 0.00, 0.00, 0.00, 0.00, 0.00, 0.00, 0.00, 0.000, 0.000, 0.000, 11:10:20.945, 1561475420945
27, -34952.56, 0.00, 0.00, 0.00, 0.00, 0.00, 0.00, 0.00, 0.000, 0.000, 0.000, 11:10:20.945, 1561475420945
28, -34902.25, 0.00, 0.00, 0.00, 0.00, 0.00, 0.00, 0.00, 0.000, 0.000, 0.000, 11:10:20.945, 1561475420945
29, -35534.98, 0.00, 0.00, 0.00, 0.00, 0.00, 0.00, 0.00, 0.000, 0.000, 0.000, 11:10:20.946, 1561475420946
30, -35659.73, 0.00, 0.00, 0.00, 0.00, 0.00, 0.00, 0.00, 0.000, 0.000, 0.000, 11:10:20.946, 1561475420946
31, -35035.00, 0.00, 0.00, 0.00, 0.00, 0.00, 0.00, 0.00, 0.000, 0.000, 0.000, 11:10:20.946, 1561475420946
32, -34827.53, 0.00, 0.00, 0.00, 0.00, 0.00, 0.00, 0.00, 0.000, 0.000, 0.000, 11:10:20.946, 1561475420946
33, -35418.71, 0.00, 0.00, 0.00, 0.00, 0.00, 0.00, 0.00, 0.088, -0.046, 1.026, 11:10:20.946, 1561475420946
34, -35698.17, 0.00, 0.00, 0.00, 0.00, 0.00, 0.00, 0.00, 0.000, 0.000, 0.000, 11:10:20.946, 1561475420946
35, -35136.65, 0.00, 0.00, 0.00, 0.00, 0.00, 0.00, 0.00, 0.000, 0.000, 0.000, 11:10:20.946, 1561475420946
36, -34807.16, 0.00, 0.00, 0.00, 0.00, 0.00, 0.00, 0.00, 0.000, 0.000, 0.000, 11:10:20.946, 1561475420946
37, -35311.11, 0.00, 0.00, 0.00, 0.00, 0.00, 0.00, 0.00, 0.000, 0.000, 0.000, 11:10:20.946, 1561475420946
38, -35717.91, 0.00, 0.00, 0.00, 0.00, 0.00, 0.00, 0.00, 0.000, 0.000, 0.000, 11:10:20.946, 1561475420946
39, -35251.63, 0.00, 0.00, 0.00, 0.00, 0.00, 0.00, 0.00, 0.000, 0.000, 0.000, 11:10:20.946, 1561475420946
40, -34785.77, 0.00, 0.00, 0.00, 0.00, 0.00, 0.00, 0.00, 0.000, 0.000, 0.000, 11:10:20.947, 1561475420947
41, -35208.09, 0.00, 0.00, 0.00, 0.00, 0.00, 0.00, 0.00, 0.000, 0.000, 0.000, 11:10:20.947, 1561475420947
42, -35747.57, 0.00, 0.00, 0.00, 0.00, 0.00, 0.00, 0.00, 0.000, 0.000, 0.000, 11:10:20.947, 1561475420947
43, -35372.17, 0.00, 0.00, 0.00, 0.00, 0.00, 0.00, 0.00, 0.082, -0.048, 1.028, 11:10:20.947, 1561475420947
44, -34771.00, 0.00, 0.00, 0.00, 0.00, 0.00, 0.00, 0.00, 0.000, 0.000, 0.000, 11:10:20.947, 1561475420947
45, -35055.58, 0.00, 0.00, 0.00, 0.00, 0.00, 0.00, 0.00, 0.000, 0.000, 0.000, 11:10:20.947, 1561475420947
46, -35673.45, 0.00, 0.00, 0.00, 0.00, 0.00, 0.00, 0.00, 0.000, 0.000, 0.000, 11:10:20.947, 1561475420947
47, -35491.75, 0.00, 0.00, 0.00, 0.00, 0.00, 0.00, 0.00, 0.000, 0.000, 0.000, 11:10:20.947, 1561475420947
48, -34868.25, 0.00, 0.00, 0.00, 0.00, 0.00, 0.00, 0.00, 0.000, 0.000, 0.000, 11:10:20.947, 1561475420947
49, -35007.43, 0.00, 0.00, 0.00, 0.00, 0.00, 0.00, 0.00, 0.000, 0.000, 0.000, 11:10:20.948, 1561475420948
50, -35644.86, 0.00, 0.00, 0.00, 0.00, 0.00, 0.00, 0.00, 0.000, 0.000, 0.000, 11:10:20.948, 1561475420948
51, -35616.07, 0.00, 0.00, 0.00, 0.00, 0.00, 0.00, 0.00, 0.000, 0.000, 0.000, 11:10:20.948, 1561475420948
52, -34978.91, 0.00, 0.00, 0.00, 0.00, 0.00, 0.00, 0.00, 0.000, 0.000, 0.000, 11:10:20.948, 1561475420948
53, -34927.64, 0.00, 0.00, 0.00, 0.00, 0.00, 0.00, 0.00, 0.088, -0.052, 1.030, 11:10:20.948, 1561475420948
54, -35547.48, 0.00, 0.00, 0.00, 0.00, 0.00, 0.00, 0.00, 0.000, 0.000, 0.000, 11:10:20.948, 1561475420948
55, -35677.72, 0.00, 0.00, 0.00, 0.00, 0.00, 0.00, 0.00, 0.000, 0.000, 0.000, 11:10:20.948, 1561475420948
56, -35068.14, 0.00, 0.00, 0.00, 0.00, 0.00, 0.00, 0.00, 0.000, 0.000, 0.000, 11:10:20.948, 1561475420948
57, -34858.08, 0.00, 0.00, 0.00, 0.00, 0.00, 0.00, 0.00, 0.000, 0.000, 0.000, 11:10:20.949, 1561475420949
58, -35436.39, 0.00, 0.00, 0.00, 0.00, 0.00, 0.00, 0.00, 0.000, 0.000, 0.000, 11:10:20.949, 1561475420949
59, -35719.79, 0.00, 0.00, 0.00, 0.00, 0.00, 0.00, 0.00, 0.000, 0.000, 0.000, 11:10:21.417, 1561475421417
60, -35167.14, 0.00, 0.00, 0.00, 0.00, 0.00, 0.00, 0.00, 0.000, 0.000, 0.000, 11:10:21.417, 1561475421417
61, -34805.18, 0.00, 0.00, 0.00, 0.00, 0.00, 0.00, 0.00, 0.000, 0.000, 0.000, 11:10:21.417, 1561475421417
62, -35307.60, 0.00, 0.00, 0.00, 0.00, 0.00, 0.00, 0.00, 0.000, 0.000, 0.000, 11:10:21.417, 1561475421417
63, -35743.03, 0.00, 0.00, 0.00, 0.00, 0.00, 0.00, 0.00, 0.088, -0.046, 1.032, 11:10:21.417, 1561475421417
64, -35294.41, 0.00, 0.00, 0.00, 0.00, 0.00, 0.00, 0.00, 0.000, 0.000, 0.000, 11:10:21.417, 1561475421417
65, -34817.31, 0.00, 0.00, 0.00, 0.00, 0.00, 0.00, 0.00, 0.000, 0.000, 0.000, 11:10:21.417, 1561475421417
66, -35224.02, 0.00, 0.00, 0.00, 0.00, 0.00, 0.00, 0.00, 0.000, 0.000, 0.000, 11:10:21.417, 1561475421417
67, -35750.65, 0.00, 0.00, 0.00, 0.00, 0.00, 0.00, 0.00, 0.000, 0.000, 0.000, 11:10:21.417, 1561475421417
68, -35411.58, 0.00, 0.00, 0.00, 0.00, 0.00, 0.00, 0.00, 0.000, 0.000, 0.000, 11:10:21.417, 1561475421417
69, -34835.53, 0.00, 0.00, 0.00, 0.00, 0.00, 0.00, 0.00, 0.000, 0.000, 0.000, 11:10:21.417, 1561475421417
70, -35098.81, 0.00, 0.00, 0.00, 0.00, 0.00, 0.00, 0.00, 0.000, 0.000, 0.000, 11:10:21.418, 1561475421418
71, -35702.48, 0.00, 0.00, 0.00, 0.00, 0.00, 0.00, 0.00, 0.000, 0.000, 0.000, 11:10:21.418, 1561475421418
72, -35526.20, 0.00, 0.00, 0.00, 0.00, 0.00, 0.00, 0.00, 0.000, 0.000, 0.000, 11:10:21.418, 1561475421418
73, -34898.70, 0.00, 0.00, 0.00, 0.00, 0.00, 0.00, 0.00, 0.084, -0.046, 1.030, 11:10:21.418, 1561475421418
74, -35003.52, 0.00, 0.00, 0.00, 0.00, 0.00, 0.00, 0.00, 0.000, 0.000, 0.000, 11:10:21.418, 1561475421418
75, -35640.79, 0.00, 0.00, 0.00, 0.00, 0.00, 0.00, 0.00, 0.000, 0.000, 0.000, 11:10:21.418, 1561475421418
76, -35606.86, 0.00, 0.00, 0.00, 0.00, 0.00, 0.00, 0.00, 0.000, 0.000, 0.000, 11:10:21.418, 1561475421418
77, -34980.90, 0.00, 0.00, 0.00, 0.00, 0.00, 0.00, 0.00, 0.000, 0.000, 0.000, 11:10:21.418, 1561475421418
78, -34929.02, 0.00, 0.00, 0.00, 0.00, 0.00, 0.00, 0.00, 0.000, 0.000, 0.000, 11:10:21.418, 1561475421418
79, -35565.56, 0.00, 0.00, 0.00, 0.00, 0.00, 0.00, 0.00, 0.000, 0.000, 0.000, 11:10:21.418, 1561475421418
80, -35689.30, 0.00, 0.00, 0.00, 0.00, 0.00, 0.00, 0.00, 0.000, 0.000, 0.000, 11:10:21.418, 1561475421418
81, -35067.00, 0.00, 0.00, 0.00, 0.00, 0.00, 0.00, 0.00, 0.000, 0.000, 0.000, 11:10:21.418, 1561475421418
82, -34843.04, 0.00, 0.00, 0.00, 0.00, 0.00, 0.00, 0.00, 0.000, 0.000, 0.000, 11:10:21.418, 1561475421418
83, -35427.09, 0.00, 0.00, 0.00, 0.00, 0.00, 0.00, 0.00, 0.000, 0.000, 0.000, 11:10:21.418, 1561475421418
84, -35712.36, 0.00, 0.00, 0.00, 0.00, 0.00, 0.00, 0.00, 0.092, -0.050, 1.030, 11:10:21.418, 1561475421418
85, -35161.50, 0.00, 0.00, 0.00, 0.00, 0.00, 0.00, 0.00, 0.000, 0.000, 0.000, 11:10:21.418, 1561475421418
86, -34798.16, 0.00, 0.00, 0.00, 0.00, 0.00, 0.00, 0.00, 0.000, 0.000, 0.000, 11:10:21.418, 1561475421418
87, -35328.92, 0.00, 0.00, 0.00, 0.00, 0.00, 0.00, 0.00, 0.000, 0.000, 0.000, 11:10:21.418, 1561475421418
88, -35753.16, 0.00, 0.00, 0.00, 0.00, 0.00, 0.00, 0.00, 0.000, 0.000, 0.000, 11:10:21.418, 1561475421418
89, -35305.83, 0.00, 0.00, 0.00, 0.00, 0.00, 0.00, 0.00, 0.000, 0.000, 0.000, 11:10:21.418, 1561475421418
90, -34824.33, 0.00, 0.00, 0.00, 0.00, 0.00, 0.00, 0.00, 0.000, 0.000, 0.000, 11:10:21.418, 1561475421418
91, -35227.00, 0.00, 0.00, 0.00, 0.00, 0.00, 0.00, 0.00, 0.000, 0.000, 0.000, 11:10:21.418, 1561475421418
92, -35753.56, 0.00, 0.00, 0.00, 0.00, 0.00, 0.00, 0.00, 0.000, 0.000, 0.000, 11:10:21.419, 1561475421419
93, -35408.43, 0.00, 0.00, 0.00, 0.00, 0.00, 0.00, 0.00, 0.000, 0.000, 0.000, 11:10:21.419, 1561475421419
94, -34826.97, 0.00, 0.00, 0.00, 0.00, 0.00, 0.00, 0.00, 0.088, -0.050, 1.030, 11:10:21.419, 1561475421419
95, -35130.44, 0.00, 0.00, 0.00, 0.00, 0.00, 0.00, 0.00, 0.000, 0.000, 0.000, 11:10:21.419, 1561475421419
96, -35738.89, 0.00, 0.00, 0.00, 0.00, 0.00, 0.00, 0.00, 0.000, 0.000, 0.000, 11:10:21.419, 1561475421419
97, -35532.84, 0.00, 0.00, 0.00, 0.00, 0.00, 0.00, 0.00, 0.000, 0.000, 0.000, 11:10:21.419, 1561475421419
98, -34901.91, 0.00, 0.00, 0.00, 0.00, 0.00, 0.00, 0.00, 0.000, 0.000, 0.000, 11:10:21.419, 1561475421419
