%OpenBCI Raw EEG Data
%Number of channels = 8
%Sample Rate = 250.0 Hz
%First Column = SampleIndex
%Last Column = Timestamp 
%Other Columns = EEG data in microvolts followed by Accel Data (in G) interleaved with Aux Data
0, 0.00, 0.00, 0.00, 0.00, 0.00, 0.00, 0.00, 0.00, 0.000, 0.000, 0.000, 11:15:06.523, 1561475706523
1, -38013.03, 0.00, 0.00, 0.00, 0.00, 0.00, 0.00, 0.00, 0.086, -0.058, 1.038, 11:15:06.538, 1561475706538
2, -37471.27, 0.00, 0.00, 0.00, 0.00, 0.00, 0.00, 0.00, 0.000, 0.000, 0.000, 11:15:07.019, 1561475707019
3, -37398.96, 0.00, 0.00, 0.00, 0.00, 0.00, 0.00, 0.00, 0.000, 0.000, 0.000, 11:15:07.019, 1561475707019
4, -37923.00, 0.00, 0.00, 0.00, 0.00, 0.00, 0.00, 0.00, 0.000, 0.000, 0.000, 11:15:07.020, 1561475707020
5, -38055.01, 0.00, 0.00, 0.00, 0.00, 0.00, 0.00, 0.00, 0.000, 0.000, 0.000, 11:15:07.020, 1561475707020
6, -37557.46, 0.00, 0.00, 0.00, 0.00, 0.00, 0.00, 0.00, 0.000, 0.000, 0.000, 11:15:07.020, 1561475707020
7, -37361.90, 0.00, 0.00, 0.00, 0.00, 0.00, 0.00, 0.00, 0.000, 0.000, 0.000, 11:15:07.020, 1561475707020
8, -37868.19, 0.00, 0.00, 0.00, 0.00, 0.00, 0.00, 0.00, 0.084, -0.052, 1.032, 11:15:07.020, 1561475707020
9, -38137.37, 0.00, 0.00, 0.00, 0.00, 0.00, 0.00, 0.00, 0.000, 0.000, 0.000, 11:15:07.020, 1561475707020
10, -37658.71, 0.00, 0.00, 0.00, 0.00, 0.00, 0.00, 0.00, 0.000, 0.000, 0.000, 11:15:07.020, 1561475707020
11, -37326.05, 0.00, 0.00, 0.00, 0.00, 0.00, 0.00, 0.00, 0.000, 0.000, 0.000, 11:15:07.020, 1561475707020
12, -37759.72, 0.00, 0.00, 0.00, 0.00, 0.00, 0.00, 0.00, 0.000, 0.000, 0.000, 11:15:07.020, 1561475707020
13, -38122.89, 0.00, 0.00, 0.00, 0.00, 0.00, 0.00, 0.00, 0.000, 0.000, 0.000, 11:15:07.020, 1561475707020
14, -37739.55, 0.00, 0.00, 0.00, 0.00, 0.00, 0.00, 0.00, 0.000, 0.000, 0.000, 11:15:07.020, 1561475707020
15, -37348.91, 0.00, 0.00, 0.00, 0.00, 0.00, 0.00, 0.00, 0.000, 0.000, 0.000, 11:15:07.020, 1561475707020
16, -37675.14, 0.00, 0.00, 0.00, 0.00, 0.00, 0.00, 0.00, 0.000, 0.000, 0.000, 11:15:07.021, 1561475707021
17, -38112.50, 0.00, 0.00, 0.00, 0.00, 0.00, 0.00, 0.00, 0.000, 0.000, 0.000, 11:15:07.021, 1561475707021
18, -37837.68, 0.00, 0.00, 0.00, 0.00, 0.00, 0.00, 0.00, 0.092, -0.058, 1.032, 11:15:07.021, 1561475707021
19, -37397.89, 0.00, 0.00, 0.00, 0.00, 0.00, 0.00, 0.00, 0.000, 0.000, 0.000, 11:15:07.021, 1561475707021
20, -37631.30, 0.00, 0.00, 0.00, 0.00, 0.00, 0.00, 0.00, 0.000, 0.000, 0.000, 11:15:07.021, 1561475707021
21, -38095.44, 0.00, 0.00, 0.00, 0.00, 0.00, 0.00, 0.00, 0.000, 0.000, 0.000, 11:15:07.021, 1561475707021
22, -37915.80, 0.00, 0.00, 0.00, 0.00, 0.00, 0.00, 0.00, 0.000, 0.000, 0.000, 11:15:07.021, 1561475707021
23, -37391.38, 0.00, 0.00, 0.00, 0.00, 0.00, 0.00, 0.00, 0.000, 0.000, 0.000, 11:15:07.021, 1561475707021
24, -37485.93, 0.00, 0.00, 0.00, 0.00, 0.00, 0.00, 0.00, 0.000, 0.000, 0.000, 11:15:07.022, 1561475707022
25, -38044.19, 0.00, 0.00, 0.00, 0.00, 0.00, 0.00, 0.00, 0.000, 0.000, 0.000, 11:15:07.022, 1561475707022
26, -38025.10, 0.00, 0.00, 0.00, 0.00, 0.00, 0.00, 0.00, 0.000, 0.000, 0.000, 11:15:07.022, 1561475707022
27, -37483.81, 0.00, 0.00, 0.00, 0.00, 0.00, 0.00, 0.00, 0.000, 0.000, 0.000, 11:15:07.022, 1561475707022
28, -37423.26, 0.00, 0.00, 0.00, 0.00, 0.00, 0.00, 0.00, 0.090, -0.048, 1.026, 11:15:07.022, 1561475707022
29, -37951.05, 0.00, 0.00, 0.00, 0.00, 0.00, 0.00, 0.00, 0.000, 0.000, 0.000, 11:15:07.022, 1561475707022
30, -38087.62, 0.00, 0.00, 0.00, 0.00, 0.00, 0.00, 0.00, 0.000, 0.000, 0.000, 11:15:07.022, 1561475707022
31, -37563.87, 0.00, 0.00, 0.00, 0.00, 0.00, 0.00, 0.00, 0.000, 0.000, 0.000, 11:15:07.022, 1561475707022
32, -37357.56, 0.00, 0.00, 0.00, 0.00, 0.00, 0.00, 0.00, 0.000, 0.000, 0.000, 11:15:07.022, 1561475707022
33, -37839.40, 0.00, 0.00, 0.00, 0.00, 0.00, 0.00, 0.00, 0.000, 0.000, 0.000, 11:15:07.023, 1561475707023
34, -38075.28, 0.00, 0.00, 0.00, 0.00, 0.00, 0.00, 0.00, 0.000, 0.000, 0.000, 11:15:07.023, 1561475707023
35, -37634.23, 0.00, 0.00, 0.00, 0.00, 0.00, 0.00, 0.00, 0.000, 0.000, 0.000, 11:15:07.023, 1561475707023
36, -37372.94, 0.00, 0.00, 0.00, 0.00, 0.00, 0.00, 0.00, 0.000, 0.000, 0.000, 11:15:07.023, 1561475707023
37, -37784.33, 0.00, 0.00, 0.00, 0.00, 0.00, 0.00, 0.00, 0.000, 0.000, 0.000, 11:15:07.023, 1561475707023
38, -38131.27, 0.00, 0.00, 0.00, 0.00, 0.00, 0.00, 0.00, 0.000, 0.000, 0.000, 11:15:07.023, 1561475707023
39, -37765.84, 0.00, 0.00, 0.00, 0.00, 0.00, 0.00, 0.00, 0.076, -0.046, 1.026, 11:15:07.024, 1561475707024
40, -37383.00, 0.00, 0.00, 0.00, 0.00, 0.00, 0.00, 0.00, 0.000, 0.000, 0.000, 11:15:07.024, 1561475707024
41, -37713.79, 0.00, 0.00, 0.00, 0.00, 0.00, 0.00, 0.00, 0.000, 0.000, 0.000, 11:15:07.024, 1561475707024
42, -38126.57, 0.00, 0.00, 0.00, 0.00, 0.00, 0.00, 0.00, 0.000, 0.000, 0.000, 11:15:07.024, 1561475707024
43, -37843.98, 0.00, 0.00, 0.00, 0.00, 0.00, 0.00, 0.00, 0.000, 0.000, 0.000, 11:15:07.024, 1561475707024
44, -37363.09, 0.00, 0.00, 0.00, 0.00, 0.00, 0.00, 0.00, 0.000, 0.000, 0.000, 11:15:07.024, 1561475707024
45, -37592.13, 0.00, 0.00, 0.00, 0.00, 0.00, 0.00, 0.00, 0.000, 0.000, 0.000, 11:15:07.024, 1561475707024
46, -38095.95, 0.00, 0.00, 0.00, 0.00, 0.00, 0.00, 0.00, 0.000, 0.000, 0.000, 11:15:07.024, 1561475707024
47, -37944.12, 0.00, 0.00, 0.00, 0.00, 0.00, 0.00, 0.00, 0.000, 0.000, 0.000, 11:15:07.024, 1561475707024
48, -37415.10, 0.00, 0.00, 0.00, 0.00, 0.00, 0.00, 0.00, 0.000, 0.000, 0.000, 11:15:07.024, 1561475707024
49, -37486.22, 0.00, 0.00, 0.00, 0.00, 0.00, 0.00, 0.00, 0.076, -0.050, 1.034, 11:15:07.025, 1561475707025
50, -38012.20, 0.00, 0.00, 0.00, 0.00, 0.00, 0.00, 0.00, 0.000, 0.000, 0.000, 11:15:07.025, 1561475707025
51, -38004.27, 0.00, 0.00, 0.00, 0.00, 0.00, 0.00, 0.00, 0.000, 0.000, 0.000, 11:15:07.025, 1561475707025
52, -37444.96, 0.00, 0.00, 0.00, 0.00, 0.00, 0.00, 0.00, 0.000, 0.000, 0.000, 11:15:07.025, 1561475707025
53, -37367.67, 0.00, 0.00, 0.00, 0.00, 0.00, 0.00, 0.00, 0.000, 0.000, 0.000, 11:15:07.025, 1561475707025
54, -37945.48, 0.00, 0.00, 0.00, 0.00, 0.00, 0.00, 0.00, 0.000, 0.000, 0.000, 11:15:07.025, 1561475707025
55, -38130.06, 0.00, 0.00, 0.00, 0.00, 0.00, 0.00, 0.00, 0.000, 0.000, 0.000, 11:15:07.025, 1561475707025
56, -37571.02, 0.00, 0.00, 0.00, 0.00, 0.00, 0.00, 0.00, 0.000, 0.000, 0.000, 11:15:07.025, 1561475707025
57, -37347.39, 0.00, 0.00, 0.00, 0.00, 0.00, 0.00, 0.00, 0.000, 0.000, 0.000, 11:15:07.025, 1561475707025
58, -37855.54, 0.00, 0.00, 0.00, 0.00, 0.00, 0.00, 0.00, 0.000, 0.000, 0.000, 11:15:07.025, 1561475707025
59, -38128.18, 0.00, 0.00, 0.00, 0.00, 0.00, 0.00, 0.00, 0.076, -0.048, 1.036, 11:15:07.025, 1561475707025
60, -37673.66, 0.00, 0.00, 0.00, 0.00, 0.00, 0.00, 0.00, 0.000, 0.000, 0.000, 11:15:07.025, 1561475707025
61, -37343.59, 0.00, 0.00, 0.00, 0.00, 0.00, 0.00, 0.00, 0.000, 0.000, 0.000, 11:15:07.026, 1561475707026
62, -37774.38, 0.00, 0.00, 0.00, 0.00, 0.00, 0.00, 0.00, 0.000, 0.000, 0.000, 11:15:07.026, 1561475707026
63, -38144.05, 0.00, 0.00, 0.00, 0.00, 0.00, 0.00, 0.00, 0.000, 0.000, 0.000, 11:15:07.026, 1561475707026
64, -37742.35, 0.00, 0.00, 0.00, 0.00, 0.00, 0.00, 0.00, 0.000, 0.000, 0.000, 11:15:07.026, 1561475707026
65, -37316.84, 0.00, 0.00, 0.00, 0.00, 0.00, 0.00, 0.00, 0.000, 0.000, 0.000, 11:15:07.026, 1561475707026
66, -37670.42, 0.00, 0.00, 0.00, 0.00, 0.00, 0.00, 0.00, 0.000, 0.000, 0.000, 11:15:07.026, 1561475707026
67, -38133.13, 0.00, 0.00, 0.00, 0.00, 0.00, 0.00, 0.00, 0.000, 0.000, 0.000, 11:15:07.026, 1561475707026
68, -37844.68, 0.00, 0.00, 0.00, 0.00, 0.00, 0.00, 0.00, 0.000, 0.000, 0.000, 11:15:07.026, 1561475707026
69, -37340.06, 0.00, 0.00, 0.00, 0.00, 0.00, 0.00, 0.00, 0.084, -0.046, 1.030, 11:15:07.026, 1561475707026
70, -37548.49, 0.00, 0.00, 0.00, 0.00, 0.00, 0.00, 0.00, 0.000, 0.000, 0.000, 11:15:07.026, 1561475707026
71, -38063.28, 0.00, 0.00, 0.00, 0.00, 0.00, 0.00, 0.00, 0.000, 0.000, 0.000, 11:15:07.026, 1561475707026
72, -37913.23, 0.00, 0.00, 0.00, 0.00, 0.00, 0.00, 0.00, 0.000, 0.000, 0.000, 11:15:07.026, 1561475707026
73, -37425.83, 0.00, 0.00, 0.00, 0.00, 0.00, 0.00, 0.00, 0.000, 0.000, 0.000, 11:15:07.027, 1561475707027
74, -37510.88, 0.00, 0.00, 0.00, 0.00, 0.00, 0.00, 0.00, 0.000, 0.000, 0.000, 11:15:07.027, 1561475707027
75, -38040.75, 0.00, 0.00, 0.00, 0.00, 0.00, 0.00, 0.00, 0.000, 0.000, 0.000, 11:15:07.027, 1561475707027
76, -38031.52, 0.00, 0.00, 0.00, 0.00, 0.00, 0.00, 0.00, 0.000, 0.000, 0.000, 11:15:07.027, 1561475707027
77, -37520.24, 0.00, 0.00, 0.00, 0.00, 0.00, 0.00, 0.00, 0.000, 0.000, 0.000, 11:15:07.027, 1561475707027
78, -37470.87, 0.00, 0.00, 0.00, 0.00, 0.00, 0.00, 0.00, 0.000, 0.000, 0.000, 11:15:07.027, 1561475707027
79, -37965.38, 0.00, 0.00, 0.00, 0.00, 0.00, 0.00, 0.00, 0.080, -0.052, 1.038, 11:15:07.027, 1561475707027
80, -38062.23, 0.00, 0.00, 0.00, 0.00, 0.00, 0.00, 0.00, 0.000, 0.000, 0.000, 11:15:07.027, 1561475707027
81, -37542.26, 0.00, 0.00, 0.00, 0.00, 0.00, 0.00, 0.00, 0.000, 0.000, 0.000, 11:15:07.028, 1561475707028
82, -37358.59, 0.00, 0.00, 0.00, 0.00, 0.00, 0.00, 0.00, 0.000, 0.000, 0.000, 11:15:07.028, 1561475707028
83, -37870.38, 0.00, 0.00, 0.00, 0.00, 0.00, 0.00, 0.00, 0.000, 0.000, 0.000, 11:15:07.028, 1561475707028
84, -38138.42, 0.00, 0.00, 0.00, 0.00, 0.00, 0.00, 0.00, 0.000, 0.000, 0.000, 11:15:07.028, 1561475707028
85, -37690.23, 0.00, 0.00, 0.00, 0.00, 0.00, 0.00, 0.00, 0.000, 0.000, 0.000, 11:15:07.028, 1561475707028
86, -37371.98, 0.00, 0.00, 0.00, 0.00, 0.00, 0.00, 0.00, 0.000, 0.000, 0.000, 11:15:07.028, 1561475707028
87, -37771.09, 0.00, 0.00, 0.00, 0.00, 0.00, 0.00, 0.00, 0.000, 0.000, 0.000, 11:15:07.028, 1561475707028
88, -38131.38, 0.00, 0.00, 0.00, 0.00, 0.00, 0.00, 0.00, 0.000, 0.000, 0.000, 11:15:07.028, 1561475707028
89, -37769.46, 0.00, 0.00, 0.00, 0.00, 0.00, 0.00, 0.00, 0.080, -0.050, 1.034, 11:15:07.028, 1561475707028
90, -37365.68, 0.00, 0.00, 0.00, 0.00, 0.00, 0.00, 0.00, 0.000, 0.000, 0.000, 11:15:07.029, 1561475707029
91, -37681.71, 0.00, 0.00, 0.00, 0.00, 0.00, 0.00, 0.00, 0.000, 0.000, 0.000, 11:15:07.029, 1561475707029
92, -38139.54, 0.00, 0.00, 0.00, 0.00, 0.00, 0.00, 0.00, 0.000, 0.000, 0.000, 11:15:07.029, 1561475707029
93, -37872.59, 0.00, 0.00, 0.00, 0.00, 0.00, 0.00, 0.00, 0.000, 0.000, 0.000, 11:15:07.029, 1561475707029
94, -37387.56, 0.00, 0.00, 0.00, 0.00, 0.00, 0.00, 0.00, 0.000, 0.000, 0.000, 11:15:07.029, 1561475707029
95, -37567.02, 0.00, 0.00, 0.00, 0.00, 0.00, 0.00, 0.00, 0.000, 0.000, 0.000, 11:15:07.029, 1561475707029
96, -38097.39, 0.00, 0.00, 0.00, 0.00, 0.00, 0.00, 0.00, 0.000, 0.000, 0.000, 11:15:07.029, 1561475707029
97, -37978.21, 0.00, 0.00, 0.00, 0.00, 0.00, 0.00, 0.00, 0.000, 0.000, 0.000, 11:15:07.029, 1561475707029
98, -37443.89, 0.00, 0.00, 0.00, 0.00, 0.00, 0.00, 0.00, 0.000, 0.000, 0.000, 11:15:07.029, 1561475707029
99, -37504.30, 0.00, 0.00, 0.00, 0.00, 0.00, 0.00, 0.00, 0.000, 0.000, 0.000, 11:15:07.029, 1561475707029
100, -38027.11, 0.00, 0.00, 0.00, 0.00, 0.00, 0.00, 0.00, 0.084, -0.044, 1.034, 11:15:07.029, 1561475707029
101, -38022.75, 0.00, 0.00, 0.00, 0.00, 0.00, 0.00, 0.00, 0.000, 0.000, 0.000, 11:15:07.029, 1561475707029
102, -37506.74, 0.00, 0.00, 0.00, 0.00, 0.00, 0.00, 0.00, 0.000, 0.000, 0.000, 11:15:07.029, 1561475707029
103, -37445.47, 0.00, 0.00, 0.00, 0.00, 0.00, 0.00, 0.00, 0.000, 0.000, 0.000, 11:15:07.029, 1561475707029
104, -37994.25, 0.00, 0.00, 0.00, 0.00, 0.00, 0.00, 0.00, 0.000, 0.000, 0.000, 11:15:07.029, 1561475707029
105, -38134.67, 0.00, 0.00, 0.00, 0.00, 0.00, 0.00, 0.00, 0.000, 0.000, 0.000, 11:15:07.029, 1561475707029
106, -37617.67, 0.00, 0.00, 0.00, 0.00, 0.00, 0.00, 0.00, 0.000, 0.000, 0.000, 11:15:07.029, 1561475707029
107, -37378.84, 0.00, 0.00, 0.00, 0.00, 0.00, 0.00, 0.00, 0.000, 0.000, 0.000, 11:15:07.029, 1561475707029
108, -37873.93, 0.00, 0.00, 0.00, 0.00, 0.00, 0.00, 0.00, 0.000, 0.000, 0.000, 11:15:07.030, 1561475707030
109, -38147.70, 0.00, 0.00, 0.00, 0.00, 0.00, 0.00, 0.00, 0.000, 0.000, 0.000, 11:15:07.030, 1561475707030
110, -37668.61, 0.00, 0.00, 0.00, 0.00, 0.00, 0.00, 0.00, 0.092, -0.040, 1.026, 11:15:07.030, 1561475707030
111, -37351.51, 0.00, 0.00, 0.00, 0.00, 0.00, 0.00, 0.00, 0.000, 0.000, 0.000, 11:15:07.030, 1561475707030
112, -37809.79, 0.00, 0.00, 0.00, 0.00, 0.00, 0.00, 0.00, 0.000, 0.000, 0.000, 11:15:07.030, 1561475707030
113, -38189.45, 0.00, 0.00, 0.00, 0.00, 0.00, 0.00, 0.00, 0.000, 0.000, 0.000, 11:15:07.030, 1561475707030
114, -37813.81, 0.00, 0.00, 0.00, 0.00, 0.00, 0.00, 0.00, 0.000, 0.000, 0.000, 11:15:07.030, 1561475707030
115, -37368.32, 0.00, 0.00, 0.00, 0.00, 0.00, 0.00, 0.00, 0.000, 0.000, 0.000, 11:15:07.030, 1561475707030
116, -37691.77, 0.00, 0.00, 0.00, 0.00, 0.00, 0.00, 0.00, 0.000, 0.000, 0.000, 11:15:07.030, 1561475707030
117, -38153.06, 0.00, 0.00, 0.00, 0.00, 0.00, 0.00, 0.00, 0.000, 0.000, 0.000, 11:15:07.030, 1561475707030
118, -37882.85, 0.00, 0.00, 0.00, 0.00, 0.00, 0.00, 0.00, 0.000, 0.000, 0.000, 11:15:07.030, 1561475707030
119, -37377.34, 0.00, 0.00, 0.00, 0.00, 0.00, 0.00, 0.00, 0.000, 0.000, 0.000, 11:15:07.030, 1561475707030
120, -37596.95, 0.00, 0.00, 0.00, 0.00, 0.00, 0.00, 0.00, 0.094, -0.042, 1.032, 11:15:07.031, 1561475707031
121, -38113.99, 0.00, 0.00, 0.00, 0.00, 0.00, 0.00, 0.00, 0.000, 0.000, 0.000, 11:15:07.031, 1561475707031
122, -37978.99, 0.00, 0.00, 0.00, 0.00, 0.00, 0.00, 0.00, 0.000, 0.000, 0.000, 11:15:07.498, 1561475707498
123, -37443.98, 0.00, 0.00, 0.00, 0.00, 0.00, 0.00, 0.00, 0.000, 0.000, 0.000, 11:15:07.498, 1561475707498
124, -37510.90, 0.00, 0.00, 0.00, 0.00, 0.00, 0.00, 0.00, 0.000, 0.000, 0.000, 11:15:07.498, 1561475707498
125, -38082.39, 0.00, 0.00, 0.00, 0.00, 0.00, 0.00, 0.00, 0.000, 0.000, 0.000, 11:15:07.498, 1561475707498
126, -38132.16, 0.00, 0.00, 0.00, 0.00, 0.00, 0.00, 0.00, 0.000, 0.000, 0.000, 11:15:07.498, 1561475707498
127, -37539.80, 0.00, 0.00, 0.00, 0.00, 0.00, 0.00, 0.00, 0.000, 0.000, 0.000, 11:15:07.498, 1561475707498
128, -37457.21, 0.00, 0.00, 0.00, 0.00, 0.00, 0.00, 0.00, 0.000, 0.000, 0.000, 11:15:07.498, 1561475707498
129, -37994.34, 0.00, 0.00, 0.00, 0.00, 0.00, 0.00, 0.00, 0.000, 0.000, 0.000, 11:15:07.498, 1561475707498
130, -38153.38, 0.00, 0.00, 0.00, 0.00, 0.00, 0.00, 0.00, 0.090, -0.042, 1.028, 11:15:07.498, 1561475707498
131, -37612.20, 0.00, 0.00, 0.00, 0.00, 0.00, 0.00, 0.00, 0.000, 0.000, 0.000, 11:15:07.499, 1561475707499
132, -37390.06, 0.00, 0.00, 0.00, 0.00, 0.00, 0.00, 0.00, 0.000, 0.000, 0.000, 11:15:07.499, 1561475707499
133, -37920.92, 0.00, 0.00, 0.00, 0.00, 0.00, 0.00, 0.00, 0.000, 0.000, 0.000, 11:15:07.499, 1561475707499
134, -38196.61, 0.00, 0.00, 0.00, 0.00, 0.00, 0.00, 0.00, 0.000, 0.000, 0.000, 11:15:07.499, 1561475707499
135, -37689.24, 0.00, 0.00, 0.00, 0.00, 0.00, 0.00, 0.00, 0.000, 0.000, 0.000, 11:15:07.499, 1561475707499
136, -37355.80, 0.00, 0.00, 0.00, 0.00, 0.00, 0.00, 0.00, 0.000, 0.000, 0.000, 11:15:07.499, 1561475707499
137, -37801.40, 0.00, 0.00, 0.00, 0.00, 0.00, 0.00, 0.00, 0.000, 0.000, 0.000, 11:15:07.499, 1561475707499
138, -38206.30, 0.00, 0.00, 0.00, 0.00, 0.00, 0.00, 0.00, 0.000, 0.000, 0.000, 11:15:07.499, 1561475707499
139, -37825.97, 0.00, 0.00, 0.00, 0.00, 0.00, 0.00, 0.00, 0.000, 0.000, 0.000, 11:15:07.499, 1561475707499
140, -37328.84, 0.00, 0.00, 0.00, 0.00, 0.00, 0.00, 0.00, 0.084, -0.044, 1.030, 11:15:07.499, 1561475707499
141, -37664.45, 0.00, 0.00, 0.00, 0.00, 0.00, 0.00, 0.00, 0.000, 0.000, 0.000, 11:15:07.499, 1561475707499
142, -38187.44, 0.00, 0.00, 0.00, 0.00, 0.00, 0.00, 0.00, 0.000, 0.000, 0.000, 11:15:07.499, 1561475707499
143, -37917.03, 0.00, 0.00, 0.00, 0.00, 0.00, 0.00, 0.00, 0.000, 0.000, 0.000, 11:15:07.499, 1561475707499
144, -37389.37, 0.00, 0.00, 0.00, 0.00, 0.00, 0.00, 0.00, 0.000, 0.000, 0.000, 11:15:07.499, 1561475707499
145, -37590.22, 0.00, 0.00, 0.00, 0.00, 0.00, 0.00, 0.00, 0.000, 0.000, 0.000, 11:15:07.499, 1561475707499
146, -38129.59, 0.00, 0.00, 0.00, 0.00, 0.00, 0.00, 0.00, 0.000, 0.000, 0.000, 11:15:07.499, 1561475707499
147, -38017.05, 0.00, 0.00, 0.00, 0.00, 0.00, 0.00, 0.00, 0.000, 0.000, 0.000, 11:15:07.499, 1561475707499
148, -37466.80, 0.00, 0.00, 0.00, 0.00, 0.00, 0.00, 0.00, 0.000, 0.000, 0.000, 11:15:07.500, 1561475707500
149, -37501.15, 0.00, 0.00, 0.00, 0.00, 0.00, 0.00, 0.00, 0.000, 0.000, 0.000, 11:15:07.500, 1561475707500
150, -38064.26, 0.00, 0.00, 0.00, 0.00, 0.00, 0.00, 0.00, 0.000, 0.000, 0.000, 11:15:07.500, 1561475707500
151, -38096.54, 0.00, 0.00, 0.00, 0.00, 0.00, 0.00, 0.00, 0.088, -0.042, 1.028, 11:15:07.500, 1561475707500
152, -37549.95, 0.00, 0.00, 0.00, 0.00, 0.00, 0.00, 0.00, 0.000, 0.000, 0.000, 11:15:07.500, 1561475707500
153, -37442.23, 0.00, 0.00, 0.00, 0.00, 0.00, 0.00, 0.00, 0.000, 0.000, 0.000, 11:15:07.500, 1561475707500
154, -37991.13, 0.00, 0.00, 0.00, 0.00, 0.00, 0.00, 0.00, 0.000, 0.000, 0.000, 11:15:07.500, 1561475707500
155, -38137.68, 0.00, 0.00, 0.00, 0.00, 0.00, 0.00, 0.00, 0.000, 0.000, 0.000, 11:15:07.500, 1561475707500
156, -37623.17, 0.00, 0.00, 0.00, 0.00, 0.00, 0.00, 0.00, 0.000, 0.000, 0.000, 11:15:07.500, 1561475707500
157, -37413.27, 0.00, 0.00, 0.00, 0.00, 0.00, 0.00, 0.00, 0.000, 0.000, 0.000, 11:15:07.500, 1561475707500
158, -37936.25, 0.00, 0.00, 0.00, 0.00, 0.00, 0.00, 0.00, 0.000, 0.000, 0.000, 11:15:07.500, 1561475707500
159, -38217.73, 0.00, 0.00, 0.00, 0.00, 0.00, 0.00, 0.00, 0.000, 0.000, 0.000, 11:15:07.501, 1561475707501
160, -37733.03, 0.00, 0.00, 0.00, 0.00, 0.00, 0.00, 0.00, 0.000, 0.000, 0.000, 11:15:07.501, 1561475707501
161, -37358.86, 0.00, 0.00, 0.00, 0.00, 0.00, 0.00, 0.00, 0.082, -0.046, 1.032, 11:15:07.501, 1561475707501
162, -37804.29, 0.00, 0.00, 0.00, 0.00, 0.00, 0.00, 0.00, 0.000, 0.000, 0.000, 11:15:07.501, 1561475707501
163, -38221.95, 0.00, 0.00, 0.00, 0.00, 0.00, 0.00, 0.00, 0.000, 0.000, 0.000, 11:15:07.501, 1561475707501
164, -37803.28, 0.00, 0.00, 0.00, 0.00, 0.00, 0.00, 0.00, 0.000, 0.000, 0.000, 11:15:07.501, 1561475707501
165, -37325.56, 0.00, 0.00, 0.00, 0.00, 0.00, 0.00, 0.00, 0.000, 0.000, 0.000, 11:15:07.501, 1561475707501
166, -37708.93, 0.00, 0.00, 0.00, 0.00, 0.00, 0.00, 0.00, 0.000, 0.000, 0.000, 11:15:07.501, 1561475707501
167, -38225.86, 0.00, 0.00, 0.00, 0.00, 0.00, 0.00, 0.00, 0.000, 0.000, 0.000, 11:15:07.501, 1561475707501
168, -37918.53, 0.00, 0.00, 0.00, 0.00, 0.00, 0.00, 0.00, 0.000, 0.000, 0.000, 11:15:07.501, 1561475707501
169, -37356.02, 0.00, 0.00, 0.00, 0.00, 0.00, 0.00, 0.00, 0.000, 0.000, 0.000, 11:15:07.501, 1561475707501
170, -37575.96, 0.00, 0.00, 0.00, 0.00, 0.00, 0.00, 0.00, 0.000, 0.000, 0.000, 11:15:07.501, 1561475707501
171, -38177.61, 0.00, 0.00, 0.00, 0.00, 0.00, 0.00, 0.00, 0.082, -0.046, 1.030, 11:15:07.501, 1561475707501
172, -38055.48, 0.00, 0.00, 0.00, 0.00, 0.00, 0.00, 0.00, 0.000, 0.000, 0.000, 11:15:07.501, 1561475707501
173, -37465.52, 0.00, 0.00, 0.00, 0.00, 0.00, 0.00, 0.00, 0.000, 0.000, 0.000, 11:15:07.501, 1561475707501
174, -37496.52, 0.00, 0.00, 0.00, 0.00, 0.00, 0.00, 0.00, 0.000, 0.000, 0.000, 11:15:07.501, 1561475707501
175, -38079.57, 0.00, 0.00, 0.00, 0.00, 0.00, 0.00, 0.00, 0.000, 0.000, 0.000, 11:15:07.501, 1561475707501
176, -38104.80, 0.00, 0.00, 0.00, 0.00, 0.00, 0.00, 0.00, 0.000, 0.000, 0.000, 11:15:07.501, 1561475707501
177, -37511.84, 0.00, 0.00, 0.00, 0.00, 0.00, 0.00, 0.00, 0.000, 0.000, 0.000, 11:15:07.501, 1561475707501
178, -37431.04, 0.00, 0.00, 0.00, 0.00, 0.00, 0.00, 0.00, 0.000, 0.000, 0.000, 11:15:07.501, 1561475707501
179, -38019.46, 0.00, 0.00, 0.00, 0.00, 0.00, 0.00, 0.00, 0.000, 0.000, 0.000, 11:15:07.501, 1561475707501
180, -38186.70, 0.00, 0.00, 0.00, 0.00, 0.00, 0.00, 0.00, 0.000, 0.000, 0.000, 11:15:07.501, 1561475707501
181, -37645.52, 0.00, 0.00, 0.00, 0.00, 0.00, 0.00, 0.00, 0.082, -0.044, 1.030, 11:15:07.501, 1561475707501
182, -37415.63, 0.00, 0.00, 0.00, 0.00, 0.00, 0.00, 0.00, 0.000, 0.000, 0.000, 11:15:07.501, 1561475707501
183, -37956.25, 0.00, 0.00, 0.00, 0.00, 0.00, 0.00, 0.00, 0.000, 0.000, 0.000, 11:15:07.501, 1561475707501
184, -38243.30, 0.00, 0.00, 0.00, 0.00, 0.00, 0.00, 0.00, 0.000, 0.000, 0.000, 11:15:07.501, 1561475707501
185, -37709.40, 0.00, 0.00, 0.00, 0.00, 0.00, 0.00, 0.00, 0.000, 0.000, 0.000, 11:15:07.502, 1561475707502
186, -37345.65, 0.00, 0.00, 0.00, 0.00, 0.00, 0.00, 0.00, 0.000, 0.000, 0.000, 11:15:07.502, 1561475707502
187, -37819.46, 0.00, 0.00, 0.00, 0.00, 0.00, 0.00, 0.00, 0.000, 0.000, 0.000, 11:15:07.502, 1561475707502
188, -38223.92, 0.00, 0.00, 0.00, 0.00, 0.00, 0.00, 0.00, 0.000, 0.000, 0.000, 11:15:07.502, 1561475707502
189, -37812.07, 0.00, 0.00, 0.00, 0.00, 0.00, 0.00, 0.00, 0.000, 0.000, 0.000, 11:15:07.502, 1561475707502
190, -37359.11, 0.00, 0.00, 0.00, 0.00, 0.00, 0.00, 0.00, 0.000, 0.000, 0.000, 11:15:07.502, 1561475707502
191, -37733.92, 0.00, 0.00, 0.00, 0.00, 0.00, 0.00, 0.00, 0.084, -0.046, 1.032, 11:15:07.502, 1561475707502
192, -38245.42, 0.00, 0.00, 0.00, 0.00, 0.00, 0.00, 0.00, 0.000, 0.000, 0.000, 11:15:07.502, 1561475707502
193, -37935.20, 0.00, 0.00, 0.00, 0.00, 0.00, 0.00, 0.00, 0.000, 0.000, 0.000, 11:15:07.502, 1561475707502
194, -37364.54, 0.00, 0.00, 0.00, 0.00, 0.00, 0.00, 0.00, 0.000, 0.000, 0.000, 11:15:07.502, 1561475707502
195, -37642.62, 0.00, 0.00, 0.00, 0.00, 0.00, 0.00, 0.00, 0.000, 0.000, 0.000, 11:15:07.502, 1561475707502
196, -38200.94, 0.00, 0.00, 0.00, 0.00, 0.00, 0.00, 0.00, 0.000, 0.000, 0.000, 11:15:07.502, 1561475707502
197, -38007.89, 0.00, 0.00, 0.00, 0.00, 0.00, 0.00, 0.00, 0.000, 0.000, 0.000, 11:15:07.502, 1561475707502
198, -37418.20, 0.00, 0.00, 0.00, 0.00, 0.00, 0.00, 0.00, 0.000, 0.000, 0.000, 11:15:07.502, 1561475707502
199, -37509.60, 0.00, 0.00, 0.00, 0.00, 0.00, 0.00, 0.00, 0.000, 0.000, 0.000, 11:15:07.502, 1561475707502
200, -38113.16, 0.00, 0.00, 0.00, 0.00, 0.00, 0.00, 0.00, 0.000, 0.000, 0.000, 11:15:07.502, 1561475707502
201, -38115.56, 0.00, 0.00, 0.00, 0.00, 0.00, 0.00, 0.00, 0.086, -0.046, 1.034, 11:15:07.502, 1561475707502
202, -37529.70, 0.00, 0.00, 0.00, 0.00, 0.00, 0.00, 0.00, 0.000, 0.000, 0.000, 11:15:07.502, 1561475707502
203, -37498.29, 0.00, 0.00, 0.00, 0.00, 0.00, 0.00, 0.00, 0.000, 0.000, 0.000, 11:15:07.502, 1561475707502
204, -38054.20, 0.00, 0.00, 0.00, 0.00, 0.00, 0.00, 0.00, 0.000, 0.000, 0.000, 11:15:07.502, 1561475707502
205, -38152.68, 0.00, 0.00, 0.00, 0.00, 0.00, 0.00, 0.00, 0.000, 0.000, 0.000, 11:15:07.502, 1561475707502
206, -37611.91, 0.00, 0.00, 0.00, 0.00, 0.00, 0.00, 0.00, 0.000, 0.000, 0.000, 11:15:07.502, 1561475707502
207, -37423.39, 0.00, 0.00, 0.00, 0.00, 0.00, 0.00, 0.00, 0.000, 0.000, 0.000, 11:15:07.502, 1561475707502
208, -37944.75, 0.00, 0.00, 0.00, 0.00, 0.00, 0.00, 0.00, 0.000, 0.000, 0.000, 11:15:07.502, 1561475707502
209, -38185.65, 0.00, 0.00, 0.00, 0.00, 0.00, 0.00, 0.00, 0.000, 0.000, 0.000, 11:15:07.502, 1561475707502
210, -37652.88, 0.00, 0.00, 0.00, 0.00, 0.00, 0.00, 0.00, 0.000, 0.000, 0.000, 11:15:07.502, 1561475707502
211, -37360.14, 0.00, 0.00, 0.00, 0.00, 0.00, 0.00, 0.00, 0.000, 0.000, 0.000, 11:15:07.503, 1561475707503
212, -37879.32, 0.00, 0.00, 0.00, 0.00, 0.00, 0.00, 0.00, 0.082, -0.046, 1.038, 11:15:07.503, 1561475707503
213, -38238.11, 0.00, 0.00, 0.00, 0.00, 0.00, 0.00, 0.00, 0.000, 0.000, 0.000, 11:15:07.503, 1561475707503
214, -37789.98, 0.00, 0.00, 0.00, 0.00, 0.00, 0.00, 0.00, 0.000, 0.000, 0.000, 11:15:07.503, 1561475707503
215, -37336.87, 0.00, 0.00, 0.00, 0.00, 0.00, 0.00, 0.00, 0.000, 0.000, 0.000, 11:15:07.503, 1561475707503
216, -37726.50, 0.00, 0.00, 0.00, 0.00, 0.00, 0.00, 0.00, 0.000, 0.000, 0.000, 11:15:07.503, 1561475707503
217, -38211.47, 0.00, 0.00, 0.00, 0.00, 0.00, 0.00, 0.00, 0.000, 0.000, 0.000, 11:15:07.503, 1561475707503
218, -37908.42, 0.00, 0.00, 0.00, 0.00, 0.00, 0.00, 0.00, 0.000, 0.000, 0.000, 11:15:07.503, 1561475707503
219, -37348.47, 0.00, 0.00, 0.00, 0.00, 0.00, 0.00, 0.00, 0.000, 0.000, 0.000, 11:15:07.503, 1561475707503
220, -37590.34, 0.00, 0.00, 0.00, 0.00, 0.00, 0.00, 0.00, 0.000, 0.000, 0.000, 11:15:07.503, 1561475707503
221, -38212.16, 0.00, 0.00, 0.00, 0.00, 0.00, 0.00, 0.00, 0.000, 0.000, 0.000, 11:15:07.503, 1561475707503
222, -38068.93, 0.00, 0.00, 0.00, 0.00, 0.00, 0.00, 0.00, 0.082, -0.042, 1.032, 11:15:07.503, 1561475707503
223, -37468.83, 0.00, 0.00, 0.00, 0.00, 0.00, 0.00, 0.00, 0.000, 0.000, 0.000, 11:15:07.503, 1561475707503
224, -37541.41, 0.00, 0.00, 0.00, 0.00, 0.00, 0.00, 0.00, 0.000, 0.000, 0.000, 11:15:07.503, 1561475707503
225, -38146.80, 0.00, 0.00, 0.00, 0.00, 0.00, 0.00, 0.00, 0.000, 0.000, 0.000, 11:15:07.503, 1561475707503
226, -38143.72, 0.00, 0.00, 0.00, 0.00, 0.00, 0.00, 0.00, 0.000, 0.000, 0.000, 11:15:07.503, 1561475707503
227, -37526.99, 0.00, 0.00, 0.00, 0.00, 0.00, 0.00, 0.00, 0.000, 0.000, 0.000, 11:15:07.503, 1561475707503
228, -37443.71, 0.00, 0.00, 0.00, 0.00, 0.00, 0.00, 0.00, 0.000, 0.000, 0.000, 11:15:07.503, 1561475707503
229, -38012.20, 0.00, 0.00, 0.00, 0.00, 0.00, 0.00, 0.00, 0.000, 0.000, 0.000, 11:15:07.503, 1561475707503
230, -38127.47, 0.00, 0.00, 0.00, 0.00, 0.00, 0.00, 0.00, 0.000, 0.000, 0.000, 11:15:07.503, 1561475707503
231, -37581.08, 0.00, 0.00, 0.00, 0.00, 0.00, 0.00, 0.00, 0.000, 0.000, 0.000, 11:15:07.503, 1561475707503
232, -37386.69, 0.00, 0.00, 0.00, 0.00, 0.00, 0.00, 0.00, 0.084, -0.042, 1.030, 11:15:07.503, 1561475707503
233, -37938.29, 0.00, 0.00, 0.00, 0.00, 0.00, 0.00, 0.00, 0.000, 0.000, 0.000, 11:15:07.503, 1561475707503
234, -38222.00, 0.00, 0.00, 0.00, 0.00, 0.00, 0.00, 0.00, 0.000, 0.000, 0.000, 11:15:07.503, 1561475707503
235, -37691.23, 0.00, 0.00, 0.00, 0.00, 0.00, 0.00, 0.00, 0.000, 0.000, 0.000, 11:15:07.503, 1561475707503
236, -37307.72, 0.00, 0.00, 0.00, 0.00, 0.00, 0.00, 0.00, 0.000, 0.000, 0.000, 11:15:07.504, 1561475707504
237, -37782.74, 0.00, 0.00, 0.00, 0.00, 0.00, 0.00, 0.00, 0.000, 0.000, 0.000, 11:15:07.504, 1561475707504
238, -38230.89, 0.00, 0.00, 0.00, 0.00, 0.00, 0.00, 0.00, 0.000, 0.000, 0.000, 11:15:07.504, 1561475707504
239, -37823.98, 0.00, 0.00, 0.00, 0.00, 0.00, 0.00, 0.00, 0.000, 0.000, 0.000, 11:15:07.504, 1561475707504
240, -37397.39, 0.00, 0.00, 0.00, 0.00, 0.00, 0.00, 0.00, 0.000, 0.000, 0.000, 11:15:07.504, 1561475707504
241, -37768.95, 0.00, 0.00, 0.00, 0.00, 0.00, 0.00, 0.00, 0.000, 0.000, 0.000, 11:15:07.504, 1561475707504
242, -38257.58, 0.00, 0.00, 0.00, 0.00, 0.00, 0.00, 0.00, 0.084, -0.042, 1.034, 11:15:07.981, 1561475707981
243, -37942.46, 0.00, 0.00, 0.00, 0.00, 0.00, 0.00, 0.00, 0.000, 0.000, 0.000, 11:15:07.981, 1561475707981
244, -37381.59, 0.00, 0.00, 0.00, 0.00, 0.00, 0.00, 0.00, 0.000, 0.000, 0.000, 11:15:07.981, 1561475707981
245, -37616.87, 0.00, 0.00, 0.00, 0.00, 0.00, 0.00, 0.00, 0.000, 0.000, 0.000, 11:15:07.981, 1561475707981
246, -38192.45, 0.00, 0.00, 0.00, 0.00, 0.00, 0.00, 0.00, 0.000, 0.000, 0.000, 11:15:07.981, 1561475707981
247, -38048.70, 0.00, 0.00, 0.00, 0.00, 0.00, 0.00, 0.00, 0.000, 0.000, 0.000, 11:15:07.981, 1561475707981
248, -37451.69, 0.00, 0.00, 0.00, 0.00, 0.00, 0.00, 0.00, 0.000, 0.000, 0.000, 11:15:07.981, 1561475707981
249, -37535.30, 0.00, 0.00, 0.00, 0.00, 0.00, 0.00, 0.00, 0.000, 0.000, 0.000, 11:15:07.981, 1561475707981
250, -38118.64, 0.00, 0.00, 0.00, 0.00, 0.00, 0.00, 0.00, 0.000, 0.000, 0.000, 11:15:07.981, 1561475707981
251, -38100.38, 0.00, 0.00, 0.00, 0.00, 0.00, 0.00, 0.00, 0.000, 0.000, 0.000, 11:15:07.981, 1561475707981
252, -37501.82, 0.00, 0.00, 0.00, 0.00, 0.00, 0.00, 0.00, 0.084, -0.042, 1.032, 11:15:07.981, 1561475707981
253, -37460.05, 0.00, 0.00, 0.00, 0.00, 0.00, 0.00, 0.00, 0.000, 0.000, 0.000, 11:15:07.981, 1561475707981
254, -38072.53, 0.00, 0.00, 0.00, 0.00, 0.00, 0.00, 0.00, 0.000, 0.000, 0.000, 11:15:07.982, 1561475707982
255, -38199.71, 0.00, 0.00, 0.00, 0.00, 0.00, 0.00, 0.00, 0.000, 0.000, 0.000, 11:15:07.982, 1561475707982
0, -37584.23, 0.00, 0.00, 0.00, 0.00, 0.00, 0.00, 0.00, 0.000, 0.000, 0.000, 11:15:07.982, 1561475707982
1, -37372.92, 0.00, 0.00, 0.00, 0.00, 0.00, 0.00, 0.00, 0.000, 0.000, 0.000, 11:15:07.982, 1561475707982
2, -37955.18, 0.00, 0.00, 0.00, 0.00, 0.00, 0.00, 0.00, 0.000, 0.000, 0.000, 11:15:07.982, 1561475707982
3, -38243.05, 0.00, 0.00, 0.00, 0.00, 0.00, 0.00, 0.00, 0.000, 0.000, 0.000, 11:15:07.982, 1561475707982
4, -37748.99, 0.00, 0.00, 0.00, 0.00, 0.00, 0.00, 0.00, 0.000, 0.000, 0.000, 11:15:07.982, 1561475707982
5, -37384.23, 0.00, 0.00, 0.00, 0.00, 0.00, 0.00, 0.00, 0.000, 0.000, 0.000, 11:15:07.982, 1561475707982
6, -37841.97, 0.00, 0.00, 0.00, 0.00, 0.00, 0.00, 0.00, 0.000, 0.000, 0.000, 11:15:07.982, 1561475707982
7, -38224.07, 0.00, 0.00, 0.00, 0.00, 0.00, 0.00, 0.00, 0.084, -0.044, 1.036, 11:15:07.982, 1561475707982
8, -37770.34, 0.00, 0.00, 0.00, 0.00, 0.00, 0.00, 0.00, 0.000, 0.000, 0.000, 11:15:07.982, 1561475707982
9, -37301.64, 0.00, 0.00, 0.00, 0.00, 0.00, 0.00, 0.00, 0.000, 0.000, 0.000, 11:15:07.982, 1561475707982
10, -37731.02, 0.00, 0.00, 0.00, 0.00, 0.00, 0.00, 0.00, 0.000, 0.000, 0.000, 11:15:07.982, 1561475707982
11, -38262.81, 0.00, 0.00, 0.00, 0.00, 0.00, 0.00, 0.00, 0.000, 0.000, 0.000, 11:15:07.983, 1561475707983
12, -37948.03, 0.00, 0.00, 0.00, 0.00, 0.00, 0.00, 0.00, 0.000, 0.000, 0.000, 11:15:07.983, 1561475707983
13, -37388.28, 0.00, 0.00, 0.00, 0.00, 0.00, 0.00, 0.00, 0.000, 0.000, 0.000, 11:15:07.983, 1561475707983
14, -37618.57, 0.00, 0.00, 0.00, 0.00, 0.00, 0.00, 0.00, 0.000, 0.000, 0.000, 11:15:07.983, 1561475707983
15, -38193.86, 0.00, 0.00, 0.00, 0.00, 0.00, 0.00, 0.00, 0.000, 0.000, 0.000, 11:15:07.983, 1561475707983
16, -38051.81, 0.00, 0.00, 0.00, 0.00, 0.00, 0.00, 0.00, 0.000, 0.000, 0.000, 11:15:07.983, 1561475707983
17, -37472.03, 0.00, 0.00, 0.00, 0.00, 0.00, 0.00, 0.00, 0.078, -0.046, 1.034, 11:15:07.983, 1561475707983
18, -37569.21, 0.00, 0.00, 0.00, 0.00, 0.00, 0.00, 0.00, 0.000, 0.000, 0.000, 11:15:07.984, 1561475707984
19, -38149.11, 0.00, 0.00, 0.00, 0.00, 0.00, 0.00, 0.00, 0.000, 0.000, 0.000, 11:15:07.984, 1561475707984
20, -38134.69, 0.00, 0.00, 0.00, 0.00, 0.00, 0.00, 0.00, 0.000, 0.000, 0.000, 11:15:07.984, 1561475707984
21, -37516.06, 0.00, 0.00, 0.00, 0.00, 0.00, 0.00, 0.00, 0.000, 0.000, 0.000, 11:15:07.984, 1561475707984
22, -37417.33, 0.00, 0.00, 0.00, 0.00, 0.00, 0.00, 0.00, 0.000, 0.000, 0.000, 11:15:07.984, 1561475707984
23, -38003.22, 0.00, 0.00, 0.00, 0.00, 0.00, 0.00, 0.00, 0.000, 0.000, 0.000, 11:15:07.984, 1561475707984
24, -38171.79, 0.00, 0.00, 0.00, 0.00, 0.00, 0.00, 0.00, 0.000, 0.000, 0.000, 11:15:07.984, 1561475707984
25, -37611.48, 0.00, 0.00, 0.00, 0.00, 0.00, 0.00, 0.00, 0.000, 0.000, 0.000, 11:15:07.984, 1561475707984
26, -37369.23, 0.00, 0.00, 0.00, 0.00, 0.00, 0.00, 0.00, 0.000, 0.000, 0.000, 11:15:07.984, 1561475707984
27, -37921.32, 0.00, 0.00, 0.00, 0.00, 0.00, 0.00, 0.00, 0.082, -0.042, 1.032, 11:15:07.984, 1561475707984
28, -38235.23, 0.00, 0.00, 0.00, 0.00, 0.00, 0.00, 0.00, 0.000, 0.000, 0.000, 11:15:07.984, 1561475707984
29, -37712.71, 0.00, 0.00, 0.00, 0.00, 0.00, 0.00, 0.00, 0.000, 0.000, 0.000, 11:15:07.984, 1561475707984
30, -37348.33, 0.00, 0.00, 0.00, 0.00, 0.00, 0.00, 0.00, 0.000, 0.000, 0.000, 11:15:07.984, 1561475707984
31, -37822.73, 0.00, 0.00, 0.00, 0.00, 0.00, 0.00, 0.00, 0.000, 0.000, 0.000, 11:15:07.984, 1561475707984
32, -38275.30, 0.00, 0.00, 0.00, 0.00, 0.00, 0.00, 0.00, 0.000, 0.000, 0.000, 11:15:07.984, 1561475707984
33, -37822.86, 0.00, 0.00, 0.00, 0.00, 0.00, 0.00, 0.00, 0.000, 0.000, 0.000, 11:15:07.984, 1561475707984
34, -37344.36, 0.00, 0.00, 0.00, 0.00, 0.00, 0.00, 0.00, 0.000, 0.000, 0.000, 11:15:07.984, 1561475707984
35, -37735.18, 0.00, 0.00, 0.00, 0.00, 0.00, 0.00, 0.00, 0.000, 0.000, 0.000, 11:15:07.984, 1561475707984
36, -38278.30, 0.00, 0.00, 0.00, 0.00, 0.00, 0.00, 0.00, 0.000, 0.000, 0.000, 11:15:07.984, 1561475707984
37, -37984.11, 0.00, 0.00, 0.00, 0.00, 0.00, 0.00, 0.00, 0.086, -0.038, 1.034, 11:15:07.984, 1561475707984
38, -37394.22, 0.00, 0.00, 0.00, 0.00, 0.00, 0.00, 0.00, 0.000, 0.000, 0.000, 11:15:07.984, 1561475707984
39, -37626.59, 0.00, 0.00, 0.00, 0.00, 0.00, 0.00, 0.00, 0.000, 0.000, 0.000, 11:15:07.984, 1561475707984
40, -38204.41, 0.00, 0.00, 0.00, 0.00, 0.00, 0.00, 0.00, 0.000, 0.000, 0.000, 11:15:07.985, 1561475707985
41, -38032.52, 0.00, 0.00, 0.00, 0.00, 0.00, 0.00, 0.00, 0.000, 0.000, 0.000, 11:15:07.985, 1561475707985
42, -37410.92, 0.00, 0.00, 0.00, 0.00, 0.00, 0.00, 0.00, 0.000, 0.000, 0.000, 11:15:07.985, 1561475707985
43, -37478.24, 0.00, 0.00, 0.00, 0.00, 0.00, 0.00, 0.00, 0.000, 0.000, 0.000, 11:15:07.985, 1561475707985
44, -38108.18, 0.00, 0.00, 0.00, 0.00, 0.00, 0.00, 0.00, 0.000, 0.000, 0.000, 11:15:07.985, 1561475707985
45, -38107.71, 0.00, 0.00, 0.00, 0.00, 0.00, 0.00, 0.00, 0.000, 0.000, 0.000, 11:15:07.985, 1561475707985
46, -37507.68, 0.00, 0.00, 0.00, 0.00, 0.00, 0.00, 0.00, 0.000, 0.000, 0.000, 11:15:07.985, 1561475707985
47, -37442.30, 0.00, 0.00, 0.00, 0.00, 0.00, 0.00, 0.00, 0.090, -0.046, 1.038, 11:15:07.985, 1561475707985
48, -38064.55, 0.00, 0.00, 0.00, 0.00, 0.00, 0.00, 0.00, 0.000, 0.000, 0.000, 11:15:07.985, 1561475707985
49, -38241.80, 0.00, 0.00, 0.00, 0.00, 0.00, 0.00, 0.00, 0.000, 0.000, 0.000, 11:15:07.985, 1561475707985
50, -37641.50, 0.00, 0.00, 0.00, 0.00, 0.00, 0.00, 0.00, 0.000, 0.000, 0.000, 11:15:07.985, 1561475707985
51, -37394.78, 0.00, 0.00, 0.00, 0.00, 0.00, 0.00, 0.00, 0.000, 0.000, 0.000, 11:15:07.985, 1561475707985
52, -37938.35, 0.00, 0.00, 0.00, 0.00, 0.00, 0.00, 0.00, 0.000, 0.000, 0.000, 11:15:07.985, 1561475707985
53, -38233.04, 0.00, 0.00, 0.00, 0.00, 0.00, 0.00, 0.00, 0.000, 0.000, 0.000, 11:15:07.985, 1561475707985
54, -37723.69, 0.00, 0.00, 0.00, 0.00, 0.00, 0.00, 0.00, 0.000, 0.000, 0.000, 11:15:07.985, 1561475707985
55, -37341.20, 0.00, 0.00, 0.00, 0.00, 0.00, 0.00, 0.00, 0.000, 0.000, 0.000, 11:15:07.985, 1561475707985
56, -37836.05, 0.00, 0.00, 0.00, 0.00, 0.00, 0.00, 0.00, 0.000, 0.000, 0.000, 11:15:07.985, 1561475707985
57, -38254.50, 0.00, 0.00, 0.00, 0.00, 0.00, 0.00, 0.00, 0.090, -0.046, 1.038, 11:15:07.985, 1561475707985
58, -37814.14, 0.00, 0.00, 0.00, 0.00, 0.00, 0.00, 0.00, 0.000, 0.000, 0.000, 11:15:07.985, 1561475707985
59, -37326.20, 0.00, 0.00, 0.00, 0.00, 0.00, 0.00, 0.00, 0.000, 0.000, 0.000, 11:15:07.985, 1561475707985
60, -37690.79, 0.00, 0.00, 0.00, 0.00, 0.00, 0.00, 0.00, 0.000, 0.000, 0.000, 11:15:07.985, 1561475707985
61, -38243.68, 0.00, 0.00, 0.00, 0.00, 0.00, 0.00, 0.00, 0.000, 0.000, 0.000, 11:15:07.985, 1561475707985
62, -37970.29, 0.00, 0.00, 0.00, 0.00, 0.00, 0.00, 0.00, 0.000, 0.000, 0.000, 11:15:07.986, 1561475707986
63, -37386.22, 0.00, 0.00, 0.00, 0.00, 0.00, 0.00, 0.00, 0.000, 0.000, 0.000, 11:15:07.986, 1561475707986
64, -37650.66, 0.00, 0.00, 0.00, 0.00, 0.00, 0.00, 0.00, 0.000, 0.000, 0.000, 11:15:07.986, 1561475707986
65, -38239.34, 0.00, 0.00, 0.00, 0.00, 0.00, 0.00, 0.00, 0.000, 0.000, 0.000, 11:15:07.986, 1561475707986
66, -38087.10, 0.00, 0.00, 0.00, 0.00, 0.00, 0.00, 0.00, 0.000, 0.000, 0.000, 11:15:07.986, 1561475707986
67, -37466.15, 0.00, 0.00, 0.00, 0.00, 0.00, 0.00, 0.00, 0.000, 0.000, 0.000, 11:15:07.986, 1561475707986
68, -37508.77, 0.00, 0.00, 0.00, 0.00, 0.00, 0.00, 0.00, 0.094, -0.042, 1.028, 11:15:07.986, 1561475707986
69, -38139.20, 0.00, 0.00, 0.00, 0.00, 0.00, 0.00, 0.00, 0.000, 0.000, 0.000, 11:15:07.986, 1561475707986
70, -38154.63, 0.00, 0.00, 0.00, 0.00, 0.00, 0.00, 0.00, 0.000, 0.000, 0.000, 11:15:07.986, 1561475707986
71, -37531.68, 0.00, 0.00, 0.00, 0.00, 0.00, 0.00, 0.00, 0.000, 0.000, 0.000, 11:15:07.986, 1561475707986
72, -37431.84, 0.00, 0.00, 0.00, 0.00, 0.00, 0.00, 0.00, 0.000, 0.000, 0.000, 11:15:07.986, 1561475707986
73, -38029.39, 0.00, 0.00, 0.00, 0.00, 0.00, 0.00, 0.00, 0.000, 0.000, 0.000, 11:15:07.986, 1561475707986
74, -38214.46, 0.00, 0.00, 0.00, 0.00, 0.00, 0.00, 0.00, 0.000, 0.000, 0.000, 11:15:07.986, 1561475707986
75, -37620.53, 0.00, 0.00, 0.00, 0.00, 0.00, 0.00, 0.00, 0.000, 0.000, 0.000, 11:15:07.986, 1561475707986
76, -37365.54, 0.00, 0.00, 0.00, 0.00, 0.00, 0.00, 0.00, 0.000, 0.000, 0.000, 11:15:07.986, 1561475707986
77, -37944.21, 0.00, 0.00, 0.00, 0.00, 0.00, 0.00, 0.00, 0.000, 0.000, 0.000, 11:15:07.986, 1561475707986
78, -38277.11, 0.00, 0.00, 0.00, 0.00, 0.00, 0.00, 0.00, 0.094, -0.040, 1.026, 11:15:07.986, 1561475707986
79, -37761.28, 0.00, 0.00, 0.00, 0.00, 0.00, 0.00, 0.00, 0.000, 0.000, 0.000, 11:15:07.986, 1561475707986
80, -37343.82, 0.00, 0.00, 0.00, 0.00, 0.00, 0.00, 0.00, 0.000, 0.000, 0.000, 11:15:07.986, 1561475707986
81, -37824.27, 0.00, 0.00, 0.00, 0.00, 0.00, 0.00, 0.00, 0.000, 0.000, 0.000, 11:15:07.986, 1561475707986
82, -38275.91, 0.00, 0.00, 0.00, 0.00, 0.00, 0.00, 0.00, 0.000, 0.000, 0.000, 11:15:07.987, 1561475707987
83, -37846.98, 0.00, 0.00, 0.00, 0.00, 0.00, 0.00, 0.00, 0.000, 0.000, 0.000, 11:15:07.987, 1561475707987
84, -37364.16, 0.00, 0.00, 0.00, 0.00, 0.00, 0.00, 0.00, 0.000, 0.000, 0.000, 11:15:07.987, 1561475707987
85, -37748.83, 0.00, 0.00, 0.00, 0.00, 0.00, 0.00, 0.00, 0.000, 0.000, 0.000, 11:15:07.987, 1561475707987
86, -38293.10, 0.00, 0.00, 0.00, 0.00, 0.00, 0.00, 0.00, 0.000, 0.000, 0.000, 11:15:07.987, 1561475707987
87, -37964.37, 0.00, 0.00, 0.00, 0.00, 0.00, 0.00, 0.00, 0.000, 0.000, 0.000, 11:15:07.987, 1561475707987
88, -37381.88, 0.00, 0.00, 0.00, 0.00, 0.00, 0.00, 0.00, 0.088, -0.050, 1.028, 11:15:07.990, 1561475707990
89, -37627.44, 0.00, 0.00, 0.00, 0.00, 0.00, 0.00, 0.00, 0.000, 0.000, 0.000, 11:15:07.990, 1561475707990
90, -38188.04, 0.00, 0.00, 0.00, 0.00, 0.00, 0.00, 0.00, 0.000, 0.000, 0.000, 11:15:07.990, 1561475707990
91, -38025.88, 0.00, 0.00, 0.00, 0.00, 0.00, 0.00, 0.00, 0.000, 0.000, 0.000, 11:15:07.991, 1561475707991
92, -37449.41, 0.00, 0.00, 0.00, 0.00, 0.00, 0.00, 0.00, 0.000, 0.000, 0.000, 11:15:07.991, 1561475707991
93, -37533.47, 0.00, 0.00, 0.00, 0.00, 0.00, 0.00, 0.00, 0.000, 0.000, 0.000, 11:15:07.991, 1561475707991
94, -38139.14, 0.00, 0.00, 0.00, 0.00, 0.00, 0.00, 0.00, 0.000, 0.000, 0.000, 11:15:07.991, 1561475707991
95, -38141.62, 0.00, 0.00, 0.00, 0.00, 0.00, 0.00, 0.00, 0.000, 0.000, 0.000, 11:15:07.991, 1561475707991
96, -37530.46, 0.00, 0.00, 0.00, 0.00, 0.00, 0.00, 0.00, 0.000, 0.000, 0.000, 11:15:07.991, 1561475707991
97, -37473.10, 0.00, 0.00, 0.00, 0.00, 0.00, 0.00, 0.00, 0.000, 0.000, 0.000, 11:15:07.992, 1561475707992
98, -38074.83, 0.00, 0.00, 0.00, 0.00, 0.00, 0.00, 0.00, 0.086, -0.048, 1.028, 11:15:07.992, 1561475707992
99, -38222.62, 0.00, 0.00, 0.00, 0.00, 0.00, 0.00, 0.00, 0.000, 0.000, 0.000, 11:15:07.992, 1561475707992
100, -37646.91, 0.00, 0.00, 0.00, 0.00, 0.00, 0.00, 0.00, 0.000, 0.000, 0.000, 11:15:07.992, 1561475707992
101, -37429.98, 0.00, 0.00, 0.00, 0.00, 0.00, 0.00, 0.00, 0.000, 0.000, 0.000, 11:15:07.992, 1561475707992
102, -37965.80, 0.00, 0.00, 0.00, 0.00, 0.00, 0.00, 0.00, 0.000, 0.000, 0.000, 11:15:07.992, 1561475707992
103, -38282.37, 0.00, 0.00, 0.00, 0.00, 0.00, 0.00, 0.00, 0.000, 0.000, 0.000, 11:15:07.992, 1561475707992
104, -37782.36, 0.00, 0.00, 0.00, 0.00, 0.00, 0.00, 0.00, 0.000, 0.000, 0.000, 11:15:07.992, 1561475707992
105, -37363.09, 0.00, 0.00, 0.00, 0.00, 0.00, 0.00, 0.00, 0.000, 0.000, 0.000, 11:15:07.992, 1561475707992
106, -37827.46, 0.00, 0.00, 0.00, 0.00, 0.00, 0.00, 0.00, 0.000, 0.000, 0.000, 11:15:07.992, 1561475707992
107, -38287.84, 0.00, 0.00, 0.00, 0.00, 0.00, 0.00, 0.00, 0.000, 0.000, 0.000, 11:15:08.461, 1561475708461
108, -37870.85, 0.00, 0.00, 0.00, 0.00, 0.00, 0.00, 0.00, 0.086, -0.048, 1.032, 11:15:08.462, 1561475708462
109, -37389.04, 0.00, 0.00, 0.00, 0.00, 0.00, 0.00, 0.00, 0.000, 0.000, 0.000, 11:15:08.462, 1561475708462
110, -37759.89, 0.00, 0.00, 0.00, 0.00, 0.00, 0.00, 0.00, 0.000, 0.000, 0.000, 11:15:08.462, 1561475708462
111, -38293.39, 0.00, 0.00, 0.00, 0.00, 0.00, 0.00, 0.00, 0.000, 0.000, 0.000, 11:15:08.462, 1561475708462
112, -37978.00, 0.00, 0.00, 0.00, 0.00, 0.00, 0.00, 0.00, 0.000, 0.000, 0.000, 11:15:08.462, 1561475708462
113, -37401.87, 0.00, 0.00, 0.00, 0.00, 0.00, 0.00, 0.00, 0.000, 0.000, 0.000, 11:15:08.462, 1561475708462
114, -37611.84, 0.00, 0.00, 0.00, 0.00, 0.00, 0.00, 0.00, 0.000, 0.000, 0.000, 11:15:08.463, 1561475708463
115, -38220.03, 0.00, 0.00, 0.00, 0.00, 0.00, 0.00, 0.00, 0.000, 0.000, 0.000, 11:15:08.463, 1561475708463
116, -38061.80, 0.00, 0.00, 0.00, 0.00, 0.00, 0.00, 0.00, 0.000, 0.000, 0.000, 11:15:08.463, 1561475708463
117, -37440.40, 0.00, 0.00, 0.00, 0.00, 0.00, 0.00, 0.00, 0.000, 0.000, 0.000, 11:15:08.463, 1561475708463
118, -37502.11, 0.00, 0.00, 0.00, 0.00, 0.00, 0.00, 0.00, 0.000, 0.000, 0.000, 11:15:08.463, 1561475708463
119, -38118.64, 0.00, 0.00, 0.00, 0.00, 0.00, 0.00, 0.00, 0.092, -0.046, 1.036, 11:15:08.463, 1561475708463
120, -38137.89, 0.00, 0.00, 0.00, 0.00, 0.00, 0.00, 0.00, 0.000, 0.000, 0.000, 11:15:08.463, 1561475708463
121, -37537.00, 0.00, 0.00, 0.00, 0.00, 0.00, 0.00, 0.00, 0.000, 0.000, 0.000, 11:15:08.463, 1561475708463
122, -37458.21, 0.00, 0.00, 0.00, 0.00, 0.00, 0.00, 0.00, 0.000, 0.000, 0.000, 11:15:08.463, 1561475708463
123, -38083.68, 0.00, 0.00, 0.00, 0.00, 0.00, 0.00, 0.00, 0.000, 0.000, 0.000, 11:15:08.463, 1561475708463
124, -38239.88, 0.00, 0.00, 0.00, 0.00, 0.00, 0.00, 0.00, 0.000, 0.000, 0.000, 11:15:08.463, 1561475708463
125, -37647.24, 0.00, 0.00, 0.00, 0.00, 0.00, 0.00, 0.00, 0.000, 0.000, 0.000, 11:15:08.463, 1561475708463
126, -37426.56, 0.00, 0.00, 0.00, 0.00, 0.00, 0.00, 0.00, 0.000, 0.000, 0.000, 11:15:08.463, 1561475708463
127, -37982.52, 0.00, 0.00, 0.00, 0.00, 0.00, 0.00, 0.00, 0.000, 0.000, 0.000, 11:15:08.463, 1561475708463
128, -38275.44, 0.00, 0.00, 0.00, 0.00, 0.00, 0.00, 0.00, 0.000, 0.000, 0.000, 11:15:08.463, 1561475708463
129, -37737.66, 0.00, 0.00, 0.00, 0.00, 0.00, 0.00, 0.00, 0.088, -0.050, 1.028, 11:15:08.463, 1561475708463
130, -37367.60, 0.00, 0.00, 0.00, 0.00, 0.00, 0.00, 0.00, 0.000, 0.000, 0.000, 11:15:08.463, 1561475708463
131, -37838.98, 0.00, 0.00, 0.00, 0.00, 0.00, 0.00, 0.00, 0.000, 0.000, 0.000, 11:15:08.463, 1561475708463
132, -38257.94, 0.00, 0.00, 0.00, 0.00, 0.00, 0.00, 0.00, 0.000, 0.000, 0.000, 11:15:08.463, 1561475708463
133, -37813.38, 0.00, 0.00, 0.00, 0.00, 0.00, 0.00, 0.00, 0.000, 0.000, 0.000, 11:15:08.463, 1561475708463
134, -37357.41, 0.00, 0.00, 0.00, 0.00, 0.00, 0.00, 0.00, 0.000, 0.000, 0.000, 11:15:08.463, 1561475708463
135, -37775.68, 0.00, 0.00, 0.00, 0.00, 0.00, 0.00, 0.00, 0.000, 0.000, 0.000, 11:15:08.463, 1561475708463
136, -38288.00, 0.00, 0.00, 0.00, 0.00, 0.00, 0.00, 0.00, 0.000, 0.000, 0.000, 11:15:08.464, 1561475708464
137, -37997.27, 0.00, 0.00, 0.00, 0.00, 0.00, 0.00, 0.00, 0.000, 0.000, 0.000, 11:15:08.464, 1561475708464
138, -37400.03, 0.00, 0.00, 0.00, 0.00, 0.00, 0.00, 0.00, 0.000, 0.000, 0.000, 11:15:08.464, 1561475708464
139, -37637.57, 0.00, 0.00, 0.00, 0.00, 0.00, 0.00, 0.00, 0.080, -0.046, 1.032, 11:15:08.464, 1561475708464
140, -38232.25, 0.00, 0.00, 0.00, 0.00, 0.00, 0.00, 0.00, 0.000, 0.000, 0.000, 11:15:08.464, 1561475708464
141, -38074.50, 0.00, 0.00, 0.00, 0.00, 0.00, 0.00, 0.00, 0.000, 0.000, 0.000, 11:15:08.464, 1561475708464
142, -37467.82, 0.00, 0.00, 0.00, 0.00, 0.00, 0.00, 0.00, 0.000, 0.000, 0.000, 11:15:08.464, 1561475708464
143, -37525.61, 0.00, 0.00, 0.00, 0.00, 0.00, 0.00, 0.00, 0.000, 0.000, 0.000, 11:15:08.464, 1561475708464
144, -38126.66, 0.00, 0.00, 0.00, 0.00, 0.00, 0.00, 0.00, 0.000, 0.000, 0.000, 11:15:08.464, 1561475708464
145, -38124.34, 0.00, 0.00, 0.00, 0.00, 0.00, 0.00, 0.00, 0.000, 0.000, 0.000, 11:15:08.464, 1561475708464
146, -37517.38, 0.00, 0.00, 0.00, 0.00, 0.00, 0.00, 0.00, 0.000, 0.000, 0.000, 11:15:08.464, 1561475708464
147, -37420.44, 0.00, 0.00, 0.00, 0.00, 0.00, 0.00, 0.00, 0.000, 0.000, 0.000, 11:15:08.464, 1561475708464
148, -38020.50, 0.00, 0.00, 0.00, 0.00, 0.00, 0.00, 0.00, 0.000, 0.000, 0.000, 11:15:08.464, 1561475708464
149, -38196.70, 0.00, 0.00, 0.00, 0.00, 0.00, 0.00, 0.00, 0.080, -0.044, 1.030, 11:15:08.464, 1561475708464
150, -37648.74, 0.00, 0.00, 0.00, 0.00, 0.00, 0.00, 0.00, 0.000, 0.000, 0.000, 11:15:08.464, 1561475708464
151, -37419.48, 0.00, 0.00, 0.00, 0.00, 0.00, 0.00, 0.00, 0.000, 0.000, 0.000, 11:15:08.464, 1561475708464
152, -37958.20, 0.00, 0.00, 0.00, 0.00, 0.00, 0.00, 0.00, 0.000, 0.000, 0.000, 11:15:08.464, 1561475708464
153, -38233.48, 0.00, 0.00, 0.00, 0.00, 0.00, 0.00, 0.00, 0.000, 0.000, 0.000, 11:15:08.464, 1561475708464
154, -37746.15, 0.00, 0.00, 0.00, 0.00, 0.00, 0.00, 0.00, 0.000, 0.000, 0.000, 11:15:08.464, 1561475708464
155, -37394.02, 0.00, 0.00, 0.00, 0.00, 0.00, 0.00, 0.00, 0.000, 0.000, 0.000, 11:15:08.464, 1561475708464
156, -37866.27, 0.00, 0.00, 0.00, 0.00, 0.00, 0.00, 0.00, 0.000, 0.000, 0.000, 11:15:08.464, 1561475708464
157, -38310.89, 0.00, 0.00, 0.00, 0.00, 0.00, 0.00, 0.00, 0.000, 0.000, 0.000, 11:15:08.464, 1561475708464
158, -37866.67, 0.00, 0.00, 0.00, 0.00, 0.00, 0.00, 0.00, 0.000, 0.000, 0.000, 11:15:08.465, 1561475708465
159, -37363.42, 0.00, 0.00, 0.00, 0.00, 0.00, 0.00, 0.00, 0.086, -0.042, 1.028, 11:15:08.465, 1561475708465
160, -37723.55, 0.00, 0.00, 0.00, 0.00, 0.00, 0.00, 0.00, 0.000, 0.000, 0.000, 11:15:08.465, 1561475708465
161, -38275.59, 0.00, 0.00, 0.00, 0.00, 0.00, 0.00, 0.00, 0.000, 0.000, 0.000, 11:15:08.465, 1561475708465
162, -37966.00, 0.00, 0.00, 0.00, 0.00, 0.00, 0.00, 0.00, 0.000, 0.000, 0.000, 11:15:08.465, 1561475708465
163, -37364.09, 0.00, 0.00, 0.00, 0.00, 0.00, 0.00, 0.00, 0.000, 0.000, 0.000, 11:15:08.465, 1561475708465
164, -37564.77, 0.00, 0.00, 0.00, 0.00, 0.00, 0.00, 0.00, 0.000, 0.000, 0.000, 11:15:08.465, 1561475708465
165, -38216.61, 0.00, 0.00, 0.00, 0.00, 0.00, 0.00, 0.00, 0.000, 0.000, 0.000, 11:15:08.465, 1561475708465
166, -38118.11, 0.00, 0.00, 0.00, 0.00, 0.00, 0.00, 0.00, 0.000, 0.000, 0.000, 11:15:08.465, 1561475708465
167, -37479.05, 0.00, 0.00, 0.00, 0.00, 0.00, 0.00, 0.00, 0.000, 0.000, 0.000, 11:15:08.465, 1561475708465
168, -37546.44, 0.00, 0.00, 0.00, 0.00, 0.00, 0.00, 0.00, 0.000, 0.000, 0.000, 11:15:08.465, 1561475708465
169, -38155.14, 0.00, 0.00, 0.00, 0.00, 0.00, 0.00, 0.00, 0.084, -0.046, 1.026, 11:15:08.465, 1561475708465
170, -38157.13, 0.00, 0.00, 0.00, 0.00, 0.00, 0.00, 0.00, 0.000, 0.000, 0.000, 11:15:08.465, 1561475708465
171, -37540.13, 0.00, 0.00, 0.00, 0.00, 0.00, 0.00, 0.00, 0.000, 0.000, 0.000, 11:15:08.465, 1561475708465
172, -37448.83, 0.00, 0.00, 0.00, 0.00, 0.00, 0.00, 0.00, 0.000, 0.000, 0.000, 11:15:08.465, 1561475708465
173, -38093.85, 0.00, 0.00, 0.00, 0.00, 0.00, 0.00, 0.00, 0.000, 0.000, 0.000, 11:15:08.465, 1561475708465
174, -38264.44, 0.00, 0.00, 0.00, 0.00, 0.00, 0.00, 0.00, 0.000, 0.000, 0.000, 11:15:08.465, 1561475708465
175, -37646.46, 0.00, 0.00, 0.00, 0.00, 0.00, 0.00, 0.00, 0.000, 0.000, 0.000, 11:15:08.465, 1561475708465
176, -37398.42, 0.00, 0.00, 0.00, 0.00, 0.00, 0.00, 0.00, 0.000, 0.000, 0.000, 11:15:08.465, 1561475708465
177, -37967.48, 0.00, 0.00, 0.00, 0.00, 0.00, 0.00, 0.00, 0.000, 0.000, 0.000, 11:15:08.465, 1561475708465
178, -38294.89, 0.00, 0.00, 0.00, 0.00, 0.00, 0.00, 0.00, 0.000, 0.000, 0.000, 11:15:08.465, 1561475708465
179, -37751.47, 0.00, 0.00, 0.00, 0.00, 0.00, 0.00, 0.00, 0.000, 0.000, 0.000, 11:15:08.465, 1561475708465
180, -37344.76, 0.00, 0.00, 0.00, 0.00, 0.00, 0.00, 0.00, 0.082, -0.050, 1.034, 11:15:08.466, 1561475708466
181, -37816.76, 0.00, 0.00, 0.00, 0.00, 0.00, 0.00, 0.00, 0.000, 0.000, 0.000, 11:15:08.466, 1561475708466
182, -38279.02, 0.00, 0.00, 0.00, 0.00, 0.00, 0.00, 0.00, 0.000, 0.000, 0.000, 11:15:08.466, 1561475708466
183, -37880.86, 0.00, 0.00, 0.00, 0.00, 0.00, 0.00, 0.00, 0.000, 0.000, 0.000, 11:15:08.466, 1561475708466
184, -37377.41, 0.00, 0.00, 0.00, 0.00, 0.00, 0.00, 0.00, 0.000, 0.000, 0.000, 11:15:08.466, 1561475708466
185, -37748.99, 0.00, 0.00, 0.00, 0.00, 0.00, 0.00, 0.00, 0.000, 0.000, 0.000, 11:15:08.466, 1561475708466
186, -38284.56, 0.00, 0.00, 0.00, 0.00, 0.00, 0.00, 0.00, 0.000, 0.000, 0.000, 11:15:08.466, 1561475708466
187, -37962.85, 0.00, 0.00, 0.00, 0.00, 0.00, 0.00, 0.00, 0.000, 0.000, 0.000, 11:15:08.466, 1561475708466
188, -37385.86, 0.00, 0.00, 0.00, 0.00, 0.00, 0.00, 0.00, 0.000, 0.000, 0.000, 11:15:08.466, 1561475708466
189, -37612.22, 0.00, 0.00, 0.00, 0.00, 0.00, 0.00, 0.00, 0.000, 0.000, 0.000, 11:15:08.466, 1561475708466
190, -38198.04, 0.00, 0.00, 0.00, 0.00, 0.00, 0.00, 0.00, 0.084, -0.050, 1.030, 11:15:08.466, 1561475708466
191, -38037.77, 0.00, 0.00, 0.00, 0.00, 0.00, 0.00, 0.00, 0.000, 0.000, 0.000, 11:15:08.466, 1561475708466
192, -37438.54, 0.00, 0.00, 0.00, 0.00, 0.00, 0.00, 0.00, 0.000, 0.000, 0.000, 11:15:08.466, 1561475708466
193, -37543.53, 0.00, 0.00, 0.00, 0.00, 0.00, 0.00, 0.00, 0.000, 0.000, 0.000, 11:15:08.466, 1561475708466
194, -38162.07, 0.00, 0.00, 0.00, 0.00, 0.00, 0.00, 0.00, 0.000, 0.000, 0.000, 11:15:08.467, 1561475708467
195, -38170.95, 0.00, 0.00, 0.00, 0.00, 0.00, 0.00, 0.00, 0.000, 0.000, 0.000, 11:15:08.467, 1561475708467
196, -37544.02, 0.00, 0.00, 0.00, 0.00, 0.00, 0.00, 0.00, 0.000, 0.000, 0.000, 11:15:08.467, 1561475708467
197, -37445.45, 0.00, 0.00, 0.00, 0.00, 0.00, 0.00, 0.00, 0.000, 0.000, 0.000, 11:15:08.467, 1561475708467
198, -38044.93, 0.00, 0.00, 0.00, 0.00, 0.00, 0.00, 0.00, 0.000, 0.000, 0.000, 11:15:08.467, 1561475708467
199, -38209.10, 0.00, 0.00, 0.00, 0.00, 0.00, 0.00, 0.00, 0.000, 0.000, 0.000, 11:15:08.467, 1561475708467
200, -37638.70, 0.00, 0.00, 0.00, 0.00, 0.00, 0.00, 0.00, 0.090, -0.050, 1.032, 11:15:08.467, 1561475708467
201, -37423.84, 0.00, 0.00, 0.00, 0.00, 0.00, 0.00, 0.00, 0.000, 0.000, 0.000, 11:15:08.467, 1561475708467
202, -37987.17, 0.00, 0.00, 0.00, 0.00, 0.00, 0.00, 0.00, 0.000, 0.000, 0.000, 11:15:08.467, 1561475708467
203, -38296.27, 0.00, 0.00, 0.00, 0.00, 0.00, 0.00, 0.00, 0.000, 0.000, 0.000, 11:15:08.467, 1561475708467
204, -37744.47, 0.00, 0.00, 0.00, 0.00, 0.00, 0.00, 0.00, 0.000, 0.000, 0.000, 11:15:08.467, 1561475708467
205, -37371.42, 0.00, 0.00, 0.00, 0.00, 0.00, 0.00, 0.00, 0.000, 0.000, 0.000, 11:15:08.467, 1561475708467
206, -37877.22, 0.00, 0.00, 0.00, 0.00, 0.00, 0.00, 0.00, 0.000, 0.000, 0.000, 11:15:08.467, 1561475708467
207, -38305.77, 0.00, 0.00, 0.00, 0.00, 0.00, 0.00, 0.00, 0.000, 0.000, 0.000, 11:15:08.467, 1561475708467
208, -37857.73, 0.00, 0.00, 0.00, 0.00, 0.00, 0.00, 0.00, 0.000, 0.000, 0.000, 11:15:08.467, 1561475708467
209, -37386.91, 0.00, 0.00, 0.00, 0.00, 0.00, 0.00, 0.00, 0.000, 0.000, 0.000, 11:15:08.467, 1561475708467
210, -37762.04, 0.00, 0.00, 0.00, 0.00, 0.00, 0.00, 0.00, 0.082, -0.048, 1.030, 11:15:08.467, 1561475708467
211, -38276.38, 0.00, 0.00, 0.00, 0.00, 0.00, 0.00, 0.00, 0.000, 0.000, 0.000, 11:15:08.467, 1561475708467
212, -37944.12, 0.00, 0.00, 0.00, 0.00, 0.00, 0.00, 0.00, 0.000, 0.000, 0.000, 11:15:08.468, 1561475708468
213, -37395.27, 0.00, 0.00, 0.00, 0.00, 0.00, 0.00, 0.00, 0.000, 0.000, 0.000, 11:15:08.468, 1561475708468
214, -37654.46, 0.00, 0.00, 0.00, 0.00, 0.00, 0.00, 0.00, 0.000, 0.000, 0.000, 11:15:08.468, 1561475708468
215, -38262.52, 0.00, 0.00, 0.00, 0.00, 0.00, 0.00, 0.00, 0.000, 0.000, 0.000, 11:15:08.468, 1561475708468
216, -38089.81, 0.00, 0.00, 0.00, 0.00, 0.00, 0.00, 0.00, 0.000, 0.000, 0.000, 11:15:08.468, 1561475708468
217, -37454.73, 0.00, 0.00, 0.00, 0.00, 0.00, 0.00, 0.00, 0.000, 0.000, 0.000, 11:15:08.468, 1561475708468
218, -37515.99, 0.00, 0.00, 0.00, 0.00, 0.00, 0.00, 0.00, 0.000, 0.000, 0.000, 11:15:08.468, 1561475708468
219, -38137.80, 0.00, 0.00, 0.00, 0.00, 0.00, 0.00, 0.00, 0.000, 0.000, 0.000, 11:15:08.468, 1561475708468
220, -38157.54, 0.00, 0.00, 0.00, 0.00, 0.00, 0.00, 0.00, 0.088, -0.048, 1.024, 11:15:08.468, 1561475708468
221, -37551.13, 0.00, 0.00, 0.00, 0.00, 0.00, 0.00, 0.00, 0.000, 0.000, 0.000, 11:15:08.468, 1561475708468
222, -37481.01, 0.00, 0.00, 0.00, 0.00, 0.00, 0.00, 0.00, 0.000, 0.000, 0.000, 11:15:08.468, 1561475708468
223, -38099.66, 0.00, 0.00, 0.00, 0.00, 0.00, 0.00, 0.00, 0.000, 0.000, 0.000, 11:15:08.468, 1561475708468
224, -38231.29, 0.00, 0.00, 0.00, 0.00, 0.00, 0.00, 0.00, 0.000, 0.000, 0.000, 11:15:08.468, 1561475708468
225, -37619.80, 0.00, 0.00, 0.00, 0.00, 0.00, 0.00, 0.00, 0.000, 0.000, 0.000, 11:15:08.468, 1561475708468
226, -37404.01, 0.00, 0.00, 0.00, 0.00, 0.00, 0.00, 0.00, 0.000, 0.000, 0.000, 11:15:08.468, 1561475708468
227, -37976.42, 0.00, 0.00, 0.00, 0.00, 0.00, 0.00, 0.00, 0.000, 0.000, 0.000, 11:15:08.943, 1561475708943
228, -38274.95, 0.00, 0.00, 0.00, 0.00, 0.00, 0.00, 0.00, 0.000, 0.000, 0.000, 11:15:08.943, 1561475708943
229, -37750.89, 0.00, 0.00, 0.00, 0.00, 0.00, 0.00, 0.00, 0.000, 0.000, 0.000, 11:15:08.944, 1561475708944
230, -37390.31, 0.00, 0.00, 0.00, 0.00, 0.00, 0.00, 0.00, 0.000, 0.000, 0.000, 11:15:08.944, 1561475708944
231, -37869.87, 0.00, 0.00, 0.00, 0.00, 0.00, 0.00, 0.00, 0.084, -0.046, 1.034, 11:15:08.944, 1561475708944
232, -38260.20, 0.00, 0.00, 0.00, 0.00, 0.00, 0.00, 0.00, 0.000, 0.000, 0.000, 11:15:08.944, 1561475708944
233, -37818.77, 0.00, 0.00, 0.00, 0.00, 0.00, 0.00, 0.00, 0.000, 0.000, 0.000, 11:15:08.944, 1561475708944
234, -37385.46, 0.00, 0.00, 0.00, 0.00, 0.00, 0.00, 0.00, 0.000, 0.000, 0.000, 11:15:08.944, 1561475708944
235, -37788.42, 0.00, 0.00, 0.00, 0.00, 0.00, 0.00, 0.00, 0.000, 0.000, 0.000, 11:15:08.944, 1561475708944
236, -38292.80, 0.00, 0.00, 0.00, 0.00, 0.00, 0.00, 0.00, 0.000, 0.000, 0.000, 11:15:08.944, 1561475708944
237, -37967.27, 0.00, 0.00, 0.00, 0.00, 0.00, 0.00, 0.00, 0.000, 0.000, 0.000, 11:15:08.944, 1561475708944
238, -37400.34, 0.00, 0.00, 0.00, 0.00, 0.00, 0.00, 0.00, 0.000, 0.000, 0.000, 11:15:08.944, 1561475708944
239, -37659.00, 0.00, 0.00, 0.00, 0.00, 0.00, 0.00, 0.00, 0.000, 0.000, 0.000, 11:15:08.944, 1561475708944
240, -38260.42, 0.00, 0.00, 0.00, 0.00, 0.00, 0.00, 0.00, 0.000, 0.000, 0.000, 11:15:08.944, 1561475708944
241, -38083.73, 0.00, 0.00, 0.00, 0.00, 0.00, 0.00, 0.00, 0.082, -0.046, 1.032, 11:15:08.944, 1561475708944
242, -37436.18, 0.00, 0.00, 0.00, 0.00, 0.00, 0.00, 0.00, 0.000, 0.000, 0.000, 11:15:08.944, 1561475708944
243, -37539.69, 0.00, 0.00, 0.00, 0.00, 0.00, 0.00, 0.00, 0.000, 0.000, 0.000, 11:15:08.944, 1561475708944
244, -38194.68, 0.00, 0.00, 0.00, 0.00, 0.00, 0.00, 0.00, 0.000, 0.000, 0.000, 11:15:08.944, 1561475708944
245, -38192.58, 0.00, 0.00, 0.00, 0.00, 0.00, 0.00, 0.00, 0.000, 0.000, 0.000, 11:15:08.944, 1561475708944
246, -37555.60, 0.00, 0.00, 0.00, 0.00, 0.00, 0.00, 0.00, 0.000, 0.000, 0.000, 11:15:08.944, 1561475708944
247, -37462.73, 0.00, 0.00, 0.00, 0.00, 0.00, 0.00, 0.00, 0.000, 0.000, 0.000, 11:15:08.944, 1561475708944
248, -38051.72, 0.00, 0.00, 0.00, 0.00, 0.00, 0.00, 0.00, 0.000, 0.000, 0.000, 11:15:08.944, 1561475708944
249, -38234.16, 0.00, 0.00, 0.00, 0.00, 0.00, 0.00, 0.00, 0.000, 0.000, 0.000, 11:15:08.944, 1561475708944
250, -37675.63, 0.00, 0.00, 0.00, 0.00, 0.00, 0.00, 0.00, 0.000, 0.000, 0.000, 11:15:08.945, 1561475708945
251, -37399.14, 0.00, 0.00, 0.00, 0.00, 0.00, 0.00, 0.00, 0.084, -0.048, 1.028, 11:15:08.945, 1561475708945
252, -37972.62, 0.00, 0.00, 0.00, 0.00, 0.00, 0.00, 0.00, 0.000, 0.000, 0.000, 11:15:08.945, 1561475708945
253, -38300.83, 0.00, 0.00, 0.00, 0.00, 0.00, 0.00, 0.00, 0.000, 0.000, 0.000, 11:15:08.945, 1561475708945
254, -37763.94, 0.00, 0.00, 0.00, 0.00, 0.00, 0.00, 0.00, 0.000, 0.000, 0.000, 11:15:08.945, 1561475708945
255, -37394.31, 0.00, 0.00, 0.00, 0.00, 0.00, 0.00, 0.00, 0.000, 0.000, 0.000, 11:15:08.945, 1561475708945
0, -37856.07, 0.00, 0.00, 0.00, 0.00, 0.00, 0.00, 0.00, 0.000, 0.000, 0.000, 11:15:08.945, 1561475708945
1, -38276.71, 0.00, 0.00, 0.00, 0.00, 0.00, 0.00, 0.00, 0.000, 0.000, 0.000, 11:15:08.945, 1561475708945
2, -37880.59, 0.00, 0.00, 0.00, 0.00, 0.00, 0.00, 0.00, 0.000, 0.000, 0.000, 11:15:08.945, 1561475708945
3, -37394.45, 0.00, 0.00, 0.00, 0.00, 0.00, 0.00, 0.00, 0.000, 0.000, 0.000, 11:15:08.945, 1561475708945
4, -37748.68, 0.00, 0.00, 0.00, 0.00, 0.00, 0.00, 0.00, 0.000, 0.000, 0.000, 11:15:08.945, 1561475708945
5, -38299.87, 0.00, 0.00, 0.00, 0.00, 0.00, 0.00, 0.00, 0.080, -0.046, 1.030, 11:15:08.945, 1561475708945
6, -37991.84, 0.00, 0.00, 0.00, 0.00, 0.00, 0.00, 0.00, 0.000, 0.000, 0.000, 11:15:08.945, 1561475708945
7, -37422.65, 0.00, 0.00, 0.00, 0.00, 0.00, 0.00, 0.00, 0.000, 0.000, 0.000, 11:15:08.945, 1561475708945
8, -37649.97, 0.00, 0.00, 0.00, 0.00, 0.00, 0.00, 0.00, 0.000, 0.000, 0.000, 11:15:08.945, 1561475708945
9, -38228.01, 0.00, 0.00, 0.00, 0.00, 0.00, 0.00, 0.00, 0.000, 0.000, 0.000, 11:15:08.945, 1561475708945
10, -38080.71, 0.00, 0.00, 0.00, 0.00, 0.00, 0.00, 0.00, 0.000, 0.000, 0.000, 11:15:08.945, 1561475708945
11, -37477.48, 0.00, 0.00, 0.00, 0.00, 0.00, 0.00, 0.00, 0.000, 0.000, 0.000, 11:15:08.945, 1561475708945
12, -37575.83, 0.00, 0.00, 0.00, 0.00, 0.00, 0.00, 0.00, 0.000, 0.000, 0.000, 11:15:08.945, 1561475708945
13, -38188.94, 0.00, 0.00, 0.00, 0.00, 0.00, 0.00, 0.00, 0.000, 0.000, 0.000, 11:15:08.945, 1561475708945
14, -38172.53, 0.00, 0.00, 0.00, 0.00, 0.00, 0.00, 0.00, 0.000, 0.000, 0.000, 11:15:08.945, 1561475708945
15, -37537.36, 0.00, 0.00, 0.00, 0.00, 0.00, 0.00, 0.00, 0.082, -0.048, 1.038, 11:15:08.945, 1561475708945
16, -37448.43, 0.00, 0.00, 0.00, 0.00, 0.00, 0.00, 0.00, 0.000, 0.000, 0.000, 11:15:08.946, 1561475708946
17, -38040.19, 0.00, 0.00, 0.00, 0.00, 0.00, 0.00, 0.00, 0.000, 0.000, 0.000, 11:15:08.946, 1561475708946
18, -38206.59, 0.00, 0.00, 0.00, 0.00, 0.00, 0.00, 0.00, 0.000, 0.000, 0.000, 11:15:08.946, 1561475708946
19, -37657.50, 0.00, 0.00, 0.00, 0.00, 0.00, 0.00, 0.00, 0.000, 0.000, 0.000, 11:15:08.946, 1561475708946
20, -37444.71, 0.00, 0.00, 0.00, 0.00, 0.00, 0.00, 0.00, 0.000, 0.000, 0.000, 11:15:08.946, 1561475708946
21, -38007.42, 0.00, 0.00, 0.00, 0.00, 0.00, 0.00, 0.00, 0.000, 0.000, 0.000, 11:15:08.946, 1561475708946
22, -38288.34, 0.00, 0.00, 0.00, 0.00, 0.00, 0.00, 0.00, 0.000, 0.000, 0.000, 11:15:08.946, 1561475708946
23, -37755.43, 0.00, 0.00, 0.00, 0.00, 0.00, 0.00, 0.00, 0.000, 0.000, 0.000, 11:15:08.946, 1561475708946
24, -37387.45, 0.00, 0.00, 0.00, 0.00, 0.00, 0.00, 0.00, 0.000, 0.000, 0.000, 11:15:08.946, 1561475708946
25, -37876.71, 0.00, 0.00, 0.00, 0.00, 0.00, 0.00, 0.00, 0.080, -0.044, 1.030, 11:15:08.946, 1561475708946
26, -38321.57, 0.00, 0.00, 0.00, 0.00, 0.00, 0.00, 0.00, 0.000, 0.000, 0.000, 11:15:08.946, 1561475708946
27, -37873.44, 0.00, 0.00, 0.00, 0.00, 0.00, 0.00, 0.00, 0.000, 0.000, 0.000, 11:15:08.946, 1561475708946
28, -37368.67, 0.00, 0.00, 0.00, 0.00, 0.00, 0.00, 0.00, 0.000, 0.000, 0.000, 11:15:08.946, 1561475708946
29, -37743.60, 0.00, 0.00, 0.00, 0.00, 0.00, 0.00, 0.00, 0.000, 0.000, 0.000, 11:15:08.946, 1561475708946
30, -38289.52, 0.00, 0.00, 0.00, 0.00, 0.00, 0.00, 0.00, 0.000, 0.000, 0.000, 11:15:08.946, 1561475708946
31, -37990.41, 0.00, 0.00, 0.00, 0.00, 0.00, 0.00, 0.00, 0.000, 0.000, 0.000, 11:15:08.946, 1561475708946
32, -37410.40, 0.00, 0.00, 0.00, 0.00, 0.00, 0.00, 0.00, 0.000, 0.000, 0.000, 11:15:08.946, 1561475708946
33, -37621.98, 0.00, 0.00, 0.00, 0.00, 0.00, 0.00, 0.00, 0.000, 0.000, 0.000, 11:15:08.946, 1561475708946
34, -38233.35, 0.00, 0.00, 0.00, 0.00, 0.00, 0.00, 0.00, 0.000, 0.000, 0.000, 11:15:08.946, 1561475708946
35, -38117.81, 0.00, 0.00, 0.00, 0.00, 0.00, 0.00, 0.00, 0.000, 0.000, 0.000, 11:15:08.946, 1561475708946
36, -37502.67, 0.00, 0.00, 0.00, 0.00, 0.00, 0.00, 0.00, 0.086, -0.048, 1.034, 11:15:08.946, 1561475708946
37, -37560.96, 0.00, 0.00, 0.00, 0.00, 0.00, 0.00, 0.00, 0.000, 0.000, 0.000, 11:15:08.946, 1561475708946
38, -38168.82, 0.00, 0.00, 0.00, 0.00, 0.00, 0.00, 0.00, 0.000, 0.000, 0.000, 11:15:08.947, 1561475708947
39, -38185.18, 0.00, 0.00, 0.00, 0.00, 0.00, 0.00, 0.00, 0.000, 0.000, 0.000, 11:15:08.947, 1561475708947
40, -37554.66, 0.00, 0.00, 0.00, 0.00, 0.00, 0.00, 0.00, 0.000, 0.000, 0.000, 11:15:08.947, 1561475708947
41, -37472.45, 0.00, 0.00, 0.00, 0.00, 0.00, 0.00, 0.00, 0.000, 0.000, 0.000, 11:15:08.947, 1561475708947
42, -38073.00, 0.00, 0.00, 0.00, 0.00, 0.00, 0.00, 0.00, 0.000, 0.000, 0.000, 11:15:08.947, 1561475708947
43, -38239.68, 0.00, 0.00, 0.00, 0.00, 0.00, 0.00, 0.00, 0.000, 0.000, 0.000, 11:15:08.947, 1561475708947
44, -37648.41, 0.00, 0.00, 0.00, 0.00, 0.00, 0.00, 0.00, 0.000, 0.000, 0.000, 11:15:08.947, 1561475708947
45, -37413.18, 0.00, 0.00, 0.00, 0.00, 0.00, 0.00, 0.00, 0.000, 0.000, 0.000, 11:15:08.947, 1561475708947
46, -38002.21, 0.00, 0.00, 0.00, 0.00, 0.00, 0.00, 0.00, 0.084, -0.046, 1.032, 11:15:08.947, 1561475708947
47, -38309.14, 0.00, 0.00, 0.00, 0.00, 0.00, 0.00, 0.00, 0.000, 0.000, 0.000, 11:15:08.947, 1561475708947
48, -37780.84, 0.00, 0.00, 0.00, 0.00, 0.00, 0.00, 0.00, 0.000, 0.000, 0.000, 11:15:08.947, 1561475708947
49, -37412.33, 0.00, 0.00, 0.00, 0.00, 0.00, 0.00, 0.00, 0.000, 0.000, 0.000, 11:15:08.947, 1561475708947
50, -37888.71, 0.00, 0.00, 0.00, 0.00, 0.00, 0.00, 0.00, 0.000, 0.000, 0.000, 11:15:08.947, 1561475708947
51, -38298.46, 0.00, 0.00, 0.00, 0.00, 0.00, 0.00, 0.00, 0.000, 0.000, 0.000, 11:15:08.947, 1561475708947
52, -37849.71, 0.00, 0.00, 0.00, 0.00, 0.00, 0.00, 0.00, 0.000, 0.000, 0.000, 11:15:08.947, 1561475708947
53, -37364.94, 0.00, 0.00, 0.00, 0.00, 0.00, 0.00, 0.00, 0.000, 0.000, 0.000, 11:15:08.947, 1561475708947
54, -37733.12, 0.00, 0.00, 0.00, 0.00, 0.00, 0.00, 0.00, 0.000, 0.000, 0.000, 11:15:08.947, 1561475708947
55, -38309.55, 0.00, 0.00, 0.00, 0.00, 0.00, 0.00, 0.00, 0.000, 0.000, 0.000, 11:15:08.947, 1561475708947
56, -37986.39, 0.00, 0.00, 0.00, 0.00, 0.00, 0.00, 0.00, 0.084, -0.054, 1.030, 11:15:08.947, 1561475708947
57, -37401.71, 0.00, 0.00, 0.00, 0.00, 0.00, 0.00, 0.00, 0.000, 0.000, 0.000, 11:15:08.947, 1561475708947
58, -37640.76, 0.00, 0.00, 0.00, 0.00, 0.00, 0.00, 0.00, 0.000, 0.000, 0.000, 11:15:08.947, 1561475708947
59, -38251.48, 0.00, 0.00, 0.00, 0.00, 0.00, 0.00, 0.00, 0.000, 0.000, 0.000, 11:15:08.947, 1561475708947
60, -38088.02, 0.00, 0.00, 0.00, 0.00, 0.00, 0.00, 0.00, 0.000, 0.000, 0.000, 11:15:08.948, 1561475708948
61, -37466.91, 0.00, 0.00, 0.00, 0.00, 0.00, 0.00, 0.00, 0.000, 0.000, 0.000, 11:15:08.948, 1561475708948
62, -37573.91, 0.00, 0.00, 0.00, 0.00, 0.00, 0.00, 0.00, 0.000, 0.000, 0.000, 11:15:08.948, 1561475708948
63, -38190.88, 0.00, 0.00, 0.00, 0.00, 0.00, 0.00, 0.00, 0.000, 0.000, 0.000, 11:15:08.948, 1561475708948
64, -38173.45, 0.00, 0.00, 0.00, 0.00, 0.00, 0.00, 0.00, 0.000, 0.000, 0.000, 11:15:08.948, 1561475708948
65, -37551.04, 0.00, 0.00, 0.00, 0.00, 0.00, 0.00, 0.00, 0.000, 0.000, 0.000, 11:15:08.948, 1561475708948
66, -37476.32, 0.00, 0.00, 0.00, 0.00, 0.00, 0.00, 0.00, 0.088, -0.052, 1.034, 11:15:08.948, 1561475708948
67, -38072.53, 0.00, 0.00, 0.00, 0.00, 0.00, 0.00, 0.00, 0.000, 0.000, 0.000, 11:15:08.948, 1561475708948
68, -38229.02, 0.00, 0.00, 0.00, 0.00, 0.00, 0.00, 0.00, 0.000, 0.000, 0.000, 11:15:08.948, 1561475708948
69, -37632.85, 0.00, 0.00, 0.00, 0.00, 0.00, 0.00, 0.00, 0.000, 0.000, 0.000, 11:15:08.948, 1561475708948
70, -37389.84, 0.00, 0.00, 0.00, 0.00, 0.00, 0.00, 0.00, 0.000, 0.000, 0.000, 11:15:08.948, 1561475708948
71, -37984.98, 0.00, 0.00, 0.00, 0.00, 0.00, 0.00, 0.00, 0.000, 0.000, 0.000, 11:15:08.948, 1561475708948
72, -38301.64, 0.00, 0.00, 0.00, 0.00, 0.00, 0.00, 0.00, 0.000, 0.000, 0.000, 11:15:08.948, 1561475708948
73, -37758.84, 0.00, 0.00, 0.00, 0.00, 0.00, 0.00, 0.00, 0.000, 0.000, 0.000, 11:15:08.948, 1561475708948
74, -37387.92, 0.00, 0.00, 0.00, 0.00, 0.00, 0.00, 0.00, 0.000, 0.000, 0.000, 11:15:08.948, 1561475708948
75, -37888.69, 0.00, 0.00, 0.00, 0.00, 0.00, 0.00, 0.00, 0.000, 0.000, 0.000, 11:15:08.948, 1561475708948
76, -38330.63, 0.00, 0.00, 0.00, 0.00, 0.00, 0.00, 0.00, 0.080, -0.052, 1.034, 11:15:08.948, 1561475708948
77, -37900.11, 0.00, 0.00, 0.00, 0.00, 0.00, 0.00, 0.00, 0.000, 0.000, 0.000, 11:15:08.948, 1561475708948
78, -37399.68, 0.00, 0.00, 0.00, 0.00, 0.00, 0.00, 0.00, 0.000, 0.000, 0.000, 11:15:08.948, 1561475708948
79, -37771.25, 0.00, 0.00, 0.00, 0.00, 0.00, 0.00, 0.00, 0.000, 0.000, 0.000, 11:15:08.948, 1561475708948
80, -38317.35, 0.00, 0.00, 0.00, 0.00, 0.00, 0.00, 0.00, 0.000, 0.000, 0.000, 11:15:08.948, 1561475708948
81, -38009.34, 0.00, 0.00, 0.00, 0.00, 0.00, 0.00, 0.00, 0.000, 0.000, 0.000, 11:15:08.948, 1561475708948
82, -37423.10, 0.00, 0.00, 0.00, 0.00, 0.00, 0.00, 0.00, 0.000, 0.000, 0.000, 11:15:08.949, 1561475708949
83, -37632.11, 0.00, 0.00, 0.00, 0.00, 0.00, 0.00, 0.00, 0.000, 0.000, 0.000, 11:15:08.949, 1561475708949
84, -38248.17, 0.00, 0.00, 0.00, 0.00, 0.00, 0.00, 0.00, 0.000, 0.000, 0.000, 11:15:08.949, 1561475708949
85, -38116.00, 0.00, 0.00, 0.00, 0.00, 0.00, 0.00, 0.00, 0.000, 0.000, 0.000, 11:15:08.949, 1561475708949
86, -37509.82, 0.00, 0.00, 0.00, 0.00, 0.00, 0.00, 0.00, 0.000, 0.000, 0.000, 11:15:08.949, 1561475708949
87, -37595.27, 0.00, 0.00, 0.00, 0.00, 0.00, 0.00, 0.00, 0.080, -0.050, 1.034, 11:15:08.949, 1561475708949
88, -38235.72, 0.00, 0.00, 0.00, 0.00, 0.00, 0.00, 0.00, 0.000, 0.000, 0.000, 11:15:08.949, 1561475708949
89, -38212.12, 0.00, 0.00, 0.00, 0.00, 0.00, 0.00, 0.00, 0.000, 0.000, 0.000, 11:15:08.949, 1561475708949
90, -37579.45, 0.00, 0.00, 0.00, 0.00, 0.00, 0.00, 0.00, 0.000, 0.000, 0.000, 11:15:08.949, 1561475708949
91, -37492.50, 0.00, 0.00, 0.00, 0.00, 0.00, 0.00, 0.00, 0.000, 0.000, 0.000, 11:15:09.425, 1561475709425
92, -38097.39, 0.00, 0.00, 0.00, 0.00, 0.00, 0.00, 0.00, 0.000, 0.000, 0.000, 11:15:09.426, 1561475709426
93, -38264.91, 0.00, 0.00, 0.00, 0.00, 0.00, 0.00, 0.00, 0.000, 0.000, 0.000, 11:15:09.426, 1561475709426
94, -37686.65, 0.00, 0.00, 0.00, 0.00, 0.00, 0.00, 0.00, 0.000, 0.000, 0.000, 11:15:09.426, 1561475709426
95, -37452.87, 0.00, 0.00, 0.00, 0.00, 0.00, 0.00, 0.00, 0.000, 0.000, 0.000, 11:15:09.426, 1561475709426
96, -38009.57, 0.00, 0.00, 0.00, 0.00, 0.00, 0.00, 0.00, 0.000, 0.000, 0.000, 11:15:09.427, 1561475709427
97, -38311.20, 0.00, 0.00, 0.00, 0.00, 0.00, 0.00, 0.00, 0.088, -0.048, 1.034, 11:15:09.427, 1561475709427
98, -37781.91, 0.00, 0.00, 0.00, 0.00, 0.00, 0.00, 0.00, 0.000, 0.000, 0.000, 11:15:09.427, 1561475709427
99, -37404.57, 0.00, 0.00, 0.00, 0.00, 0.00, 0.00, 0.00, 0.000, 0.000, 0.000, 11:15:09.427, 1561475709427
100, -37891.28, 0.00, 0.00, 0.00, 0.00, 0.00, 0.00, 0.00, 0.000, 0.000, 0.000, 11:15:09.427, 1561475709427
101, -38335.86, 0.00, 0.00, 0.00, 0.00, 0.00, 0.00, 0.00, 0.000, 0.000, 0.000, 11:15:09.427, 1561475709427
102, -37899.04, 0.00, 0.00, 0.00, 0.00, 0.00, 0.00, 0.00, 0.000, 0.000, 0.000, 11:15:09.427, 1561475709427
103, -37422.99, 0.00, 0.00, 0.00, 0.00, 0.00, 0.00, 0.00, 0.000, 0.000, 0.000, 11:15:09.428, 1561475709428
104, -37781.96, 0.00, 0.00, 0.00, 0.00, 0.00, 0.00, 0.00, 0.000, 0.000, 0.000, 11:15:09.428, 1561475709428
105, -38300.00, 0.00, 0.00, 0.00, 0.00, 0.00, 0.00, 0.00, 0.000, 0.000, 0.000, 11:15:09.428, 1561475709428
106, -37998.37, 0.00, 0.00, 0.00, 0.00, 0.00, 0.00, 0.00, 0.000, 0.000, 0.000, 11:15:09.428, 1561475709428
107, -37453.14, 0.00, 0.00, 0.00, 0.00, 0.00, 0.00, 0.00, 0.080, -0.050, 1.028, 11:15:09.428, 1561475709428
108, -37679.81, 0.00, 0.00, 0.00, 0.00, 0.00, 0.00, 0.00, 0.000, 0.000, 0.000, 11:15:09.428, 1561475709428
109, -38270.41, 0.00, 0.00, 0.00, 0.00, 0.00, 0.00, 0.00, 0.000, 0.000, 0.000, 11:15:09.428, 1561475709428
110, -38089.14, 0.00, 0.00, 0.00, 0.00, 0.00, 0.00, 0.00, 0.000, 0.000, 0.000, 11:15:09.428, 1561475709428
111, -37474.06, 0.00, 0.00, 0.00, 0.00, 0.00, 0.00, 0.00, 0.000, 0.000, 0.000, 11:15:09.428, 1561475709428
112, -37610.18, 0.00, 0.00, 0.00, 0.00, 0.00, 0.00, 0.00, 0.000, 0.000, 0.000, 11:15:09.428, 1561475709428
113, -38237.87, 0.00, 0.00, 0.00, 0.00, 0.00, 0.00, 0.00, 0.000, 0.000, 0.000, 11:15:09.428, 1561475709428
114, -38199.62, 0.00, 0.00, 0.00, 0.00, 0.00, 0.00, 0.00, 0.000, 0.000, 0.000, 11:15:09.429, 1561475709429
115, -37572.92, 0.00, 0.00, 0.00, 0.00, 0.00, 0.00, 0.00, 0.000, 0.000, 0.000, 11:15:09.429, 1561475709429
116, -37492.28, 0.00, 0.00, 0.00, 0.00, 0.00, 0.00, 0.00, 0.000, 0.000, 0.000, 11:15:09.431, 1561475709431
117, -38105.12, 0.00, 0.00, 0.00, 0.00, 0.00, 0.00, 0.00, 0.082, -0.048, 1.030, 11:15:09.431, 1561475709431
118, -38289.14, 0.00, 0.00, 0.00, 0.00, 0.00, 0.00, 0.00, 0.000, 0.000, 0.000, 11:15:09.431, 1561475709431
119, -37703.99, 0.00, 0.00, 0.00, 0.00, 0.00, 0.00, 0.00, 0.000, 0.000, 0.000, 11:15:09.431, 1561475709431
120, -37450.91, 0.00, 0.00, 0.00, 0.00, 0.00, 0.00, 0.00, 0.000, 0.000, 0.000, 11:15:09.431, 1561475709431
121, -38010.28, 0.00, 0.00, 0.00, 0.00, 0.00, 0.00, 0.00, 0.000, 0.000, 0.000, 11:15:09.431, 1561475709431
122, -38303.67, 0.00, 0.00, 0.00, 0.00, 0.00, 0.00, 0.00, 0.000, 0.000, 0.000, 11:15:09.431, 1561475709431
123, -37777.44, 0.00, 0.00, 0.00, 0.00, 0.00, 0.00, 0.00, 0.000, 0.000, 0.000, 11:15:09.431, 1561475709431
124, -37393.11, 0.00, 0.00, 0.00, 0.00, 0.00, 0.00, 0.00, 0.000, 0.000, 0.000, 11:15:09.431, 1561475709431
125, -37887.59, 0.00, 0.00, 0.00, 0.00, 0.00, 0.00, 0.00, 0.000, 0.000, 0.000, 11:15:09.431, 1561475709431
126, -38340.32, 0.00, 0.00, 0.00, 0.00, 0.00, 0.00, 0.00, 0.000, 0.000, 0.000, 11:15:09.431, 1561475709431
127, -37902.95, 0.00, 0.00, 0.00, 0.00, 0.00, 0.00, 0.00, 0.084, -0.048, 1.028, 11:15:09.431, 1561475709431
128, -37417.87, 0.00, 0.00, 0.00, 0.00, 0.00, 0.00, 0.00, 0.000, 0.000, 0.000, 11:15:09.431, 1561475709431
129, -37788.53, 0.00, 0.00, 0.00, 0.00, 0.00, 0.00, 0.00, 0.000, 0.000, 0.000, 11:15:09.431, 1561475709431
130, -38320.19, 0.00, 0.00, 0.00, 0.00, 0.00, 0.00, 0.00, 0.000, 0.000, 0.000, 11:15:09.432, 1561475709432
131, -37992.71, 0.00, 0.00, 0.00, 0.00, 0.00, 0.00, 0.00, 0.000, 0.000, 0.000, 11:15:09.432, 1561475709432
132, -37413.82, 0.00, 0.00, 0.00, 0.00, 0.00, 0.00, 0.00, 0.000, 0.000, 0.000, 11:15:09.432, 1561475709432
133, -37659.13, 0.00, 0.00, 0.00, 0.00, 0.00, 0.00, 0.00, 0.000, 0.000, 0.000, 11:15:09.432, 1561475709432
134, -38305.61, 0.00, 0.00, 0.00, 0.00, 0.00, 0.00, 0.00, 0.000, 0.000, 0.000, 11:15:09.432, 1561475709432
135, -38126.35, 0.00, 0.00, 0.00, 0.00, 0.00, 0.00, 0.00, 0.000, 0.000, 0.000, 11:15:09.432, 1561475709432
136, -37499.25, 0.00, 0.00, 0.00, 0.00, 0.00, 0.00, 0.00, 0.000, 0.000, 0.000, 11:15:09.432, 1561475709432
137, -37581.39, 0.00, 0.00, 0.00, 0.00, 0.00, 0.00, 0.00, 0.084, -0.050, 1.026, 11:15:09.432, 1561475709432
138, -38197.79, 0.00, 0.00, 0.00, 0.00, 0.00, 0.00, 0.00, 0.000, 0.000, 0.000, 11:15:09.432, 1561475709432
139, -38192.56, 0.00, 0.00, 0.00, 0.00, 0.00, 0.00, 0.00, 0.000, 0.000, 0.000, 11:15:09.432, 1561475709432
140, -37599.43, 0.00, 0.00, 0.00, 0.00, 0.00, 0.00, 0.00, 0.000, 0.000, 0.000, 11:15:09.432, 1561475709432
141, -37540.85, 0.00, 0.00, 0.00, 0.00, 0.00, 0.00, 0.00, 0.000, 0.000, 0.000, 11:15:09.432, 1561475709432
142, -38110.75, 0.00, 0.00, 0.00, 0.00, 0.00, 0.00, 0.00, 0.000, 0.000, 0.000, 11:15:09.432, 1561475709432
143, -38269.79, 0.00, 0.00, 0.00, 0.00, 0.00, 0.00, 0.00, 0.000, 0.000, 0.000, 11:15:09.432, 1561475709432
144, -37662.22, 0.00, 0.00, 0.00, 0.00, 0.00, 0.00, 0.00, 0.000, 0.000, 0.000, 11:15:09.433, 1561475709433
145, -37440.38, 0.00, 0.00, 0.00, 0.00, 0.00, 0.00, 0.00, 0.000, 0.000, 0.000, 11:15:09.433, 1561475709433
146, -38018.04, 0.00, 0.00, 0.00, 0.00, 0.00, 0.00, 0.00, 0.000, 0.000, 0.000, 11:15:09.433, 1561475709433
147, -38309.48, 0.00, 0.00, 0.00, 0.00, 0.00, 0.00, 0.00, 0.000, 0.000, 0.000, 11:15:09.433, 1561475709433
148, -37751.27, 0.00, 0.00, 0.00, 0.00, 0.00, 0.00, 0.00, 0.088, -0.050, 1.026, 11:15:09.433, 1561475709433
149, -37377.59, 0.00, 0.00, 0.00, 0.00, 0.00, 0.00, 0.00, 0.000, 0.000, 0.000, 11:15:09.433, 1561475709433
150, -37894.23, 0.00, 0.00, 0.00, 0.00, 0.00, 0.00, 0.00, 0.000, 0.000, 0.000, 11:15:09.433, 1561475709433
151, -38349.04, 0.00, 0.00, 0.00, 0.00, 0.00, 0.00, 0.00, 0.000, 0.000, 0.000, 11:15:09.433, 1561475709433
152, -37906.28, 0.00, 0.00, 0.00, 0.00, 0.00, 0.00, 0.00, 0.000, 0.000, 0.000, 11:15:09.433, 1561475709433
153, -37424.66, 0.00, 0.00, 0.00, 0.00, 0.00, 0.00, 0.00, 0.000, 0.000, 0.000, 11:15:09.433, 1561475709433
154, -37793.38, 0.00, 0.00, 0.00, 0.00, 0.00, 0.00, 0.00, 0.000, 0.000, 0.000, 11:15:09.433, 1561475709433
155, -38307.07, 0.00, 0.00, 0.00, 0.00, 0.00, 0.00, 0.00, 0.000, 0.000, 0.000, 11:15:09.433, 1561475709433
156, -37994.07, 0.00, 0.00, 0.00, 0.00, 0.00, 0.00, 0.00, 0.000, 0.000, 0.000, 11:15:09.433, 1561475709433
157, -37431.73, 0.00, 0.00, 0.00, 0.00, 0.00, 0.00, 0.00, 0.000, 0.000, 0.000, 11:15:09.433, 1561475709433
158, -37683.57, 0.00, 0.00, 0.00, 0.00, 0.00, 0.00, 0.00, 0.088, -0.044, 1.026, 11:15:09.433, 1561475709433
159, -38288.31, 0.00, 0.00, 0.00, 0.00, 0.00, 0.00, 0.00, 0.000, 0.000, 0.000, 11:15:09.434, 1561475709434
160, -38135.88, 0.00, 0.00, 0.00, 0.00, 0.00, 0.00, 0.00, 0.000, 0.000, 0.000, 11:15:09.434, 1561475709434
161, -37504.41, 0.00, 0.00, 0.00, 0.00, 0.00, 0.00, 0.00, 0.000, 0.000, 0.000, 11:15:09.434, 1561475709434
162, -37572.86, 0.00, 0.00, 0.00, 0.00, 0.00, 0.00, 0.00, 0.000, 0.000, 0.000, 11:15:09.434, 1561475709434
163, -38184.80, 0.00, 0.00, 0.00, 0.00, 0.00, 0.00, 0.00, 0.000, 0.000, 0.000, 11:15:09.434, 1561475709434
164, -38187.29, 0.00, 0.00, 0.00, 0.00, 0.00, 0.00, 0.00, 0.000, 0.000, 0.000, 11:15:09.434, 1561475709434
165, -37570.15, 0.00, 0.00, 0.00, 0.00, 0.00, 0.00, 0.00, 0.000, 0.000, 0.000, 11:15:09.434, 1561475709434
166, -37531.02, 0.00, 0.00, 0.00, 0.00, 0.00, 0.00, 0.00, 0.000, 0.000, 0.000, 11:15:09.434, 1561475709434
167, -38165.07, 0.00, 0.00, 0.00, 0.00, 0.00, 0.00, 0.00, 0.000, 0.000, 0.000, 11:15:09.434, 1561475709434
168, -38304.05, 0.00, 0.00, 0.00, 0.00, 0.00, 0.00, 0.00, 0.086, -0.050, 1.032, 11:15:09.434, 1561475709434
169, -37680.48, 0.00, 0.00, 0.00, 0.00, 0.00, 0.00, 0.00, 0.000, 0.000, 0.000, 11:15:09.434, 1561475709434
170, -37423.99, 0.00, 0.00, 0.00, 0.00, 0.00, 0.00, 0.00, 0.000, 0.000, 0.000, 11:15:09.434, 1561475709434
171, -37993.70, 0.00, 0.00, 0.00, 0.00, 0.00, 0.00, 0.00, 0.000, 0.000, 0.000, 11:15:09.434, 1561475709434
172, -38306.44, 0.00, 0.00, 0.00, 0.00, 0.00, 0.00, 0.00, 0.000, 0.000, 0.000, 11:15:09.434, 1561475709434
173, -37789.55, 0.00, 0.00, 0.00, 0.00, 0.00, 0.00, 0.00, 0.000, 0.000, 0.000, 11:15:09.434, 1561475709434
174, -37419.84, 0.00, 0.00, 0.00, 0.00, 0.00, 0.00, 0.00, 0.000, 0.000, 0.000, 11:15:09.435, 1561475709435
175, -37902.97, 0.00, 0.00, 0.00, 0.00, 0.00, 0.00, 0.00, 0.000, 0.000, 0.000, 11:15:09.435, 1561475709435
176, -38351.12, 0.00, 0.00, 0.00, 0.00, 0.00, 0.00, 0.00, 0.000, 0.000, 0.000, 11:15:09.435, 1561475709435
177, -37932.68, 0.00, 0.00, 0.00, 0.00, 0.00, 0.00, 0.00, 0.000, 0.000, 0.000, 11:15:09.435, 1561475709435
178, -37436.67, 0.00, 0.00, 0.00, 0.00, 0.00, 0.00, 0.00, 0.086, -0.046, 1.032, 11:15:09.435, 1561475709435
179, -37781.69, 0.00, 0.00, 0.00, 0.00, 0.00, 0.00, 0.00, 0.000, 0.000, 0.000, 11:15:09.435, 1561475709435
180, -38298.59, 0.00, 0.00, 0.00, 0.00, 0.00, 0.00, 0.00, 0.000, 0.000, 0.000, 11:15:09.435, 1561475709435
181, -37999.93, 0.00, 0.00, 0.00, 0.00, 0.00, 0.00, 0.00, 0.000, 0.000, 0.000, 11:15:09.435, 1561475709435
182, -37454.68, 0.00, 0.00, 0.00, 0.00, 0.00, 0.00, 0.00, 0.000, 0.000, 0.000, 11:15:09.435, 1561475709435
183, -37705.45, 0.00, 0.00, 0.00, 0.00, 0.00, 0.00, 0.00, 0.000, 0.000, 0.000, 11:15:09.435, 1561475709435
184, -38271.71, 0.00, 0.00, 0.00, 0.00, 0.00, 0.00, 0.00, 0.000, 0.000, 0.000, 11:15:09.435, 1561475709435
185, -38090.70, 0.00, 0.00, 0.00, 0.00, 0.00, 0.00, 0.00, 0.000, 0.000, 0.000, 11:15:09.435, 1561475709435
186, -37466.86, 0.00, 0.00, 0.00, 0.00, 0.00, 0.00, 0.00, 0.000, 0.000, 0.000, 11:15:09.435, 1561475709435
187, -37602.54, 0.00, 0.00, 0.00, 0.00, 0.00, 0.00, 0.00, 0.000, 0.000, 0.000, 11:15:09.435, 1561475709435
188, -38239.86, 0.00, 0.00, 0.00, 0.00, 0.00, 0.00, 0.00, 0.090, -0.046, 1.032, 11:15:09.435, 1561475709435
189, -38185.76, 0.00, 0.00, 0.00, 0.00, 0.00, 0.00, 0.00, 0.000, 0.000, 0.000, 11:15:09.436, 1561475709436
190, -37550.71, 0.00, 0.00, 0.00, 0.00, 0.00, 0.00, 0.00, 0.000, 0.000, 0.000, 11:15:09.436, 1561475709436
191, -37492.10, 0.00, 0.00, 0.00, 0.00, 0.00, 0.00, 0.00, 0.000, 0.000, 0.000, 11:15:09.436, 1561475709436
192, -38109.86, 0.00, 0.00, 0.00, 0.00, 0.00, 0.00, 0.00, 0.000, 0.000, 0.000, 11:15:09.436, 1561475709436
193, -38249.18, 0.00, 0.00, 0.00, 0.00, 0.00, 0.00, 0.00, 0.000, 0.000, 0.000, 11:15:09.436, 1561475709436
194, -37650.75, 0.00, 0.00, 0.00, 0.00, 0.00, 0.00, 0.00, 0.000, 0.000, 0.000, 11:15:09.436, 1561475709436
195, -37413.71, 0.00, 0.00, 0.00, 0.00, 0.00, 0.00, 0.00, 0.000, 0.000, 0.000, 11:15:09.436, 1561475709436
196, -38005.79, 0.00, 0.00, 0.00, 0.00, 0.00, 0.00, 0.00, 0.000, 0.000, 0.000, 11:15:09.436, 1561475709436
197, -38347.55, 0.00, 0.00, 0.00, 0.00, 0.00, 0.00, 0.00, 0.000, 0.000, 0.000, 11:15:09.436, 1561475709436
198, -37831.87, 0.00, 0.00, 0.00, 0.00, 0.00, 0.00, 0.00, 0.000, 0.000, 0.000, 11:15:09.436, 1561475709436
199, -37442.59, 0.00, 0.00, 0.00, 0.00, 0.00, 0.00, 0.00, 0.092, -0.046, 1.026, 11:15:09.436, 1561475709436
200, -37897.31, 0.00, 0.00, 0.00, 0.00, 0.00, 0.00, 0.00, 0.000, 0.000, 0.000, 11:15:09.436, 1561475709436
201, -38314.75, 0.00, 0.00, 0.00, 0.00, 0.00, 0.00, 0.00, 0.000, 0.000, 0.000, 11:15:09.436, 1561475709436
202, -37910.82, 0.00, 0.00, 0.00, 0.00, 0.00, 0.00, 0.00, 0.000, 0.000, 0.000, 11:15:09.436, 1561475709436
203, -37401.60, 0.00, 0.00, 0.00, 0.00, 0.00, 0.00, 0.00, 0.000, 0.000, 0.000, 11:15:09.437, 1561475709437
204, -37786.98, 0.00, 0.00, 0.00, 0.00, 0.00, 0.00, 0.00, 0.000, 0.000, 0.000, 11:15:09.437, 1561475709437
205, -38349.76, 0.00, 0.00, 0.00, 0.00, 0.00, 0.00, 0.00, 0.000, 0.000, 0.000, 11:15:09.437, 1561475709437
206, -38028.74, 0.00, 0.00, 0.00, 0.00, 0.00, 0.00, 0.00, 0.000, 0.000, 0.000, 11:15:09.437, 1561475709437
207, -37451.15, 0.00, 0.00, 0.00, 0.00, 0.00, 0.00, 0.00, 0.000, 0.000, 0.000, 11:15:09.437, 1561475709437
208, -37672.72, 0.00, 0.00, 0.00, 0.00, 0.00, 0.00, 0.00, 0.000, 0.000, 0.000, 11:15:09.437, 1561475709437
209, -38283.13, 0.00, 0.00, 0.00, 0.00, 0.00, 0.00, 0.00, 0.090, -0.048, 1.030, 11:15:09.437, 1561475709437
210, -38143.38, 0.00, 0.00, 0.00, 0.00, 0.00, 0.00, 0.00, 0.000, 0.000, 0.000, 11:15:09.437, 1561475709437
211, -37530.70, 0.00, 0.00, 0.00, 0.00, 0.00, 0.00, 0.00, 0.000, 0.000, 0.000, 11:15:09.905, 1561475709905
212, -37607.79, 0.00, 0.00, 0.00, 0.00, 0.00, 0.00, 0.00, 0.000, 0.000, 0.000, 11:15:09.905, 1561475709905
213, -38213.82, 0.00, 0.00, 0.00, 0.00, 0.00, 0.00, 0.00, 0.000, 0.000, 0.000, 11:15:09.905, 1561475709905
214, -38165.22, 0.00, 0.00, 0.00, 0.00, 0.00, 0.00, 0.00, 0.000, 0.000, 0.000, 11:15:09.905, 1561475709905
215, -37523.14, 0.00, 0.00, 0.00, 0.00, 0.00, 0.00, 0.00, 0.000, 0.000, 0.000, 11:15:09.905, 1561475709905
216, -37479.79, 0.00, 0.00, 0.00, 0.00, 0.00, 0.00, 0.00, 0.000, 0.000, 0.000, 11:15:09.905, 1561475709905
217, -38121.91, 0.00, 0.00, 0.00, 0.00, 0.00, 0.00, 0.00, 0.000, 0.000, 0.000, 11:15:09.905, 1561475709905
218, -38289.16, 0.00, 0.00, 0.00, 0.00, 0.00, 0.00, 0.00, 0.000, 0.000, 0.000, 11:15:09.905, 1561475709905
219, -37691.23, 0.00, 0.00, 0.00, 0.00, 0.00, 0.00, 0.00, 0.090, -0.046, 1.032, 11:15:09.906, 1561475709906
220, -37456.52, 0.00, 0.00, 0.00, 0.00, 0.00, 0.00, 0.00, 0.000, 0.000, 0.000, 11:15:09.907, 1561475709907
221, -38035.09, 0.00, 0.00, 0.00, 0.00, 0.00, 0.00, 0.00, 0.000, 0.000, 0.000, 11:15:09.907, 1561475709907
222, -38340.10, 0.00, 0.00, 0.00, 0.00, 0.00, 0.00, 0.00, 0.000, 0.000, 0.000, 11:15:09.907, 1561475709907
223, -37777.49, 0.00, 0.00, 0.00, 0.00, 0.00, 0.00, 0.00, 0.000, 0.000, 0.000, 11:15:09.907, 1561475709907
224, -37425.58, 0.00, 0.00, 0.00, 0.00, 0.00, 0.00, 0.00, 0.000, 0.000, 0.000, 11:15:09.907, 1561475709907
225, -37916.65, 0.00, 0.00, 0.00, 0.00, 0.00, 0.00, 0.00, 0.000, 0.000, 0.000, 11:15:09.907, 1561475709907
226, -38345.58, 0.00, 0.00, 0.00, 0.00, 0.00, 0.00, 0.00, 0.000, 0.000, 0.000, 11:15:09.907, 1561475709907
227, -37889.29, 0.00, 0.00, 0.00, 0.00, 0.00, 0.00, 0.00, 0.000, 0.000, 0.000, 11:15:09.907, 1561475709907
228, -37391.56, 0.00, 0.00, 0.00, 0.00, 0.00, 0.00, 0.00, 0.000, 0.000, 0.000, 11:15:09.907, 1561475709907
229, -37772.01, 0.00, 0.00, 0.00, 0.00, 0.00, 0.00, 0.00, 0.084, -0.042, 1.032, 11:15:09.908, 1561475709908
230, -38308.12, 0.00, 0.00, 0.00, 0.00, 0.00, 0.00, 0.00, 0.000, 0.000, 0.000, 11:15:09.908, 1561475709908
231, -38009.59, 0.00, 0.00, 0.00, 0.00, 0.00, 0.00, 0.00, 0.000, 0.000, 0.000, 11:15:09.908, 1561475709908
232, -37458.59, 0.00, 0.00, 0.00, 0.00, 0.00, 0.00, 0.00, 0.000, 0.000, 0.000, 11:15:09.908, 1561475709908
233, -37712.33, 0.00, 0.00, 0.00, 0.00, 0.00, 0.00, 0.00, 0.000, 0.000, 0.000, 11:15:09.908, 1561475709908
234, -38300.07, 0.00, 0.00, 0.00, 0.00, 0.00, 0.00, 0.00, 0.000, 0.000, 0.000, 11:15:09.908, 1561475709908
235, -38094.55, 0.00, 0.00, 0.00, 0.00, 0.00, 0.00, 0.00, 0.000, 0.000, 0.000, 11:15:09.908, 1561475709908
236, -37456.65, 0.00, 0.00, 0.00, 0.00, 0.00, 0.00, 0.00, 0.000, 0.000, 0.000, 11:15:09.908, 1561475709908
237, -37551.49, 0.00, 0.00, 0.00, 0.00, 0.00, 0.00, 0.00, 0.000, 0.000, 0.000, 11:15:09.908, 1561475709908
238, -38218.06, 0.00, 0.00, 0.00, 0.00, 0.00, 0.00, 0.00, 0.000, 0.000, 0.000, 11:15:09.908, 1561475709908
239, -38210.17, 0.00, 0.00, 0.00, 0.00, 0.00, 0.00, 0.00, 0.086, -0.038, 1.030, 11:15:09.908, 1561475709908
240, -37553.54, 0.00, 0.00, 0.00, 0.00, 0.00, 0.00, 0.00, 0.000, 0.000, 0.000, 11:15:09.908, 1561475709908
241, -37486.15, 0.00, 0.00, 0.00, 0.00, 0.00, 0.00, 0.00, 0.000, 0.000, 0.000, 11:15:09.908, 1561475709908
242, -38137.59, 0.00, 0.00, 0.00, 0.00, 0.00, 0.00, 0.00, 0.000, 0.000, 0.000, 11:15:09.908, 1561475709908
243, -38291.69, 0.00, 0.00, 0.00, 0.00, 0.00, 0.00, 0.00, 0.000, 0.000, 0.000, 11:15:09.908, 1561475709908
244, -37686.20, 0.00, 0.00, 0.00, 0.00, 0.00, 0.00, 0.00, 0.000, 0.000, 0.000, 11:15:09.908, 1561475709908
245, -37447.02, 0.00, 0.00, 0.00, 0.00, 0.00, 0.00, 0.00, 0.000, 0.000, 0.000, 11:15:09.909, 1561475709909
246, -38005.27, 0.00, 0.00, 0.00, 0.00, 0.00, 0.00, 0.00, 0.000, 0.000, 0.000, 11:15:09.909, 1561475709909
247, -38314.38, 0.00, 0.00, 0.00, 0.00, 0.00, 0.00, 0.00, 0.000, 0.000, 0.000, 11:15:09.909, 1561475709909
248, -37785.09, 0.00, 0.00, 0.00, 0.00, 0.00, 0.00, 0.00, 0.000, 0.000, 0.000, 11:15:09.909, 1561475709909
249, -37388.61, 0.00, 0.00, 0.00, 0.00, 0.00, 0.00, 0.00, 0.084, -0.044, 1.030, 11:15:09.909, 1561475709909
250, -37870.71, 0.00, 0.00, 0.00, 0.00, 0.00, 0.00, 0.00, 0.000, 0.000, 0.000, 11:15:09.909, 1561475709909
251, -38347.39, 0.00, 0.00, 0.00, 0.00, 0.00, 0.00, 0.00, 0.000, 0.000, 0.000, 11:15:09.909, 1561475709909
252, -37916.18, 0.00, 0.00, 0.00, 0.00, 0.00, 0.00, 0.00, 0.000, 0.000, 0.000, 11:15:09.909, 1561475709909
253, -37427.82, 0.00, 0.00, 0.00, 0.00, 0.00, 0.00, 0.00, 0.000, 0.000, 0.000, 11:15:09.909, 1561475709909
254, -37795.03, 0.00, 0.00, 0.00, 0.00, 0.00, 0.00, 0.00, 0.000, 0.000, 0.000, 11:15:09.909, 1561475709909
255, -38332.04, 0.00, 0.00, 0.00, 0.00, 0.00, 0.00, 0.00, 0.000, 0.000, 0.000, 11:15:09.909, 1561475709909
0, -38012.71, 0.00, 0.00, 0.00, 0.00, 0.00, 0.00, 0.00, 0.000, 0.000, 0.000, 11:15:09.909, 1561475709909
1, -37446.26, 0.00, 0.00, 0.00, 0.00, 0.00, 0.00, 0.00, 0.000, 0.000, 0.000, 11:15:09.910, 1561475709910
2, -37701.51, 0.00, 0.00, 0.00, 0.00, 0.00, 0.00, 0.00, 0.000, 0.000, 0.000, 11:15:09.910, 1561475709910
3, -38280.65, 0.00, 0.00, 0.00, 0.00, 0.00, 0.00, 0.00, 0.000, 0.000, 0.000, 11:15:09.910, 1561475709910
4, -38108.43, 0.00, 0.00, 0.00, 0.00, 0.00, 0.00, 0.00, 0.088, -0.040, 1.036, 11:15:09.910, 1561475709910
5, -37547.31, 0.00, 0.00, 0.00, 0.00, 0.00, 0.00, 0.00, 0.000, 0.000, 0.000, 11:15:09.910, 1561475709910
6, -37637.41, 0.00, 0.00, 0.00, 0.00, 0.00, 0.00, 0.00, 0.000, 0.000, 0.000, 11:15:09.910, 1561475709910
7, -38233.69, 0.00, 0.00, 0.00, 0.00, 0.00, 0.00, 0.00, 0.000, 0.000, 0.000, 11:15:09.910, 1561475709910
8, -38225.44, 0.00, 0.00, 0.00, 0.00, 0.00, 0.00, 0.00, 0.000, 0.000, 0.000, 11:15:09.911, 1561475709911
9, -37584.95, 0.00, 0.00, 0.00, 0.00, 0.00, 0.00, 0.00, 0.000, 0.000, 0.000, 11:15:09.911, 1561475709911
10, -37486.96, 0.00, 0.00, 0.00, 0.00, 0.00, 0.00, 0.00, 0.000, 0.000, 0.000, 11:15:09.911, 1561475709911
11, -38104.52, 0.00, 0.00, 0.00, 0.00, 0.00, 0.00, 0.00, 0.000, 0.000, 0.000, 11:15:09.911, 1561475709911
12, -38290.59, 0.00, 0.00, 0.00, 0.00, 0.00, 0.00, 0.00, 0.000, 0.000, 0.000, 11:15:09.911, 1561475709911
13, -37708.80, 0.00, 0.00, 0.00, 0.00, 0.00, 0.00, 0.00, 0.000, 0.000, 0.000, 11:15:09.911, 1561475709911
14, -37485.68, 0.00, 0.00, 0.00, 0.00, 0.00, 0.00, 0.00, 0.088, -0.044, 1.032, 11:15:09.911, 1561475709911
15, -38043.20, 0.00, 0.00, 0.00, 0.00, 0.00, 0.00, 0.00, 0.000, 0.000, 0.000, 11:15:09.911, 1561475709911
16, -38325.89, 0.00, 0.00, 0.00, 0.00, 0.00, 0.00, 0.00, 0.000, 0.000, 0.000, 11:15:09.911, 1561475709911
17, -37785.89, 0.00, 0.00, 0.00, 0.00, 0.00, 0.00, 0.00, 0.000, 0.000, 0.000, 11:15:09.911, 1561475709911
18, -37437.58, 0.00, 0.00, 0.00, 0.00, 0.00, 0.00, 0.00, 0.000, 0.000, 0.000, 11:15:09.912, 1561475709912
19, -37946.91, 0.00, 0.00, 0.00, 0.00, 0.00, 0.00, 0.00, 0.000, 0.000, 0.000, 11:15:09.912, 1561475709912
20, -38389.54, 0.00, 0.00, 0.00, 0.00, 0.00, 0.00, 0.00, 0.000, 0.000, 0.000, 11:15:09.912, 1561475709912
21, -37939.71, 0.00, 0.00, 0.00, 0.00, 0.00, 0.00, 0.00, 0.000, 0.000, 0.000, 11:15:09.912, 1561475709912
22, -37437.38, 0.00, 0.00, 0.00, 0.00, 0.00, 0.00, 0.00, 0.000, 0.000, 0.000, 11:15:09.912, 1561475709912
23, -37809.11, 0.00, 0.00, 0.00, 0.00, 0.00, 0.00, 0.00, 0.000, 0.000, 0.000, 11:15:09.912, 1561475709912
24, -38305.23, 0.00, 0.00, 0.00, 0.00, 0.00, 0.00, 0.00, 0.088, -0.044, 1.034, 11:15:09.912, 1561475709912
25, -37987.82, 0.00, 0.00, 0.00, 0.00, 0.00, 0.00, 0.00, 0.000, 0.000, 0.000, 11:15:09.912, 1561475709912
26, -37463.85, 0.00, 0.00, 0.00, 0.00, 0.00, 0.00, 0.00, 0.000, 0.000, 0.000, 11:15:09.912, 1561475709912
27, -37733.97, 0.00, 0.00, 0.00, 0.00, 0.00, 0.00, 0.00, 0.000, 0.000, 0.000, 11:15:09.912, 1561475709912
28, -38321.46, 0.00, 0.00, 0.00, 0.00, 0.00, 0.00, 0.00, 0.000, 0.000, 0.000, 11:15:09.912, 1561475709912
29, -38166.21, 0.00, 0.00, 0.00, 0.00, 0.00, 0.00, 0.00, 0.000, 0.000, 0.000, 11:15:09.912, 1561475709912
30, -37550.41, 0.00, 0.00, 0.00, 0.00, 0.00, 0.00, 0.00, 0.000, 0.000, 0.000, 11:15:09.912, 1561475709912
31, -37641.70, 0.00, 0.00, 0.00, 0.00, 0.00, 0.00, 0.00, 0.000, 0.000, 0.000, 11:15:09.912, 1561475709912
32, -38237.11, 0.00, 0.00, 0.00, 0.00, 0.00, 0.00, 0.00, 0.000, 0.000, 0.000, 11:15:09.912, 1561475709912
33, -38210.20, 0.00, 0.00, 0.00, 0.00, 0.00, 0.00, 0.00, 0.000, 0.000, 0.000, 11:15:09.912, 1561475709912
34, -37592.26, 0.00, 0.00, 0.00, 0.00, 0.00, 0.00, 0.00, 0.084, -0.040, 1.032, 11:15:09.912, 1561475709912
35, -37527.84, 0.00, 0.00, 0.00, 0.00, 0.00, 0.00, 0.00, 0.000, 0.000, 0.000, 11:15:09.912, 1561475709912
36, -38143.95, 0.00, 0.00, 0.00, 0.00, 0.00, 0.00, 0.00, 0.000, 0.000, 0.000, 11:15:09.912, 1561475709912
37, -38312.05, 0.00, 0.00, 0.00, 0.00, 0.00, 0.00, 0.00, 0.000, 0.000, 0.000, 11:15:09.913, 1561475709913
38, -37714.37, 0.00, 0.00, 0.00, 0.00, 0.00, 0.00, 0.00, 0.000, 0.000, 0.000, 11:15:09.913, 1561475709913
39, -37467.87, 0.00, 0.00, 0.00, 0.00, 0.00, 0.00, 0.00, 0.000, 0.000, 0.000, 11:15:09.913, 1561475709913
40, -38050.76, 0.00, 0.00, 0.00, 0.00, 0.00, 0.00, 0.00, 0.000, 0.000, 0.000, 11:15:09.913, 1561475709913
41, -38348.48, 0.00, 0.00, 0.00, 0.00, 0.00, 0.00, 0.00, 0.000, 0.000, 0.000, 11:15:09.913, 1561475709913
42, -37805.47, 0.00, 0.00, 0.00, 0.00, 0.00, 0.00, 0.00, 0.000, 0.000, 0.000, 11:15:09.913, 1561475709913
43, -37446.91, 0.00, 0.00, 0.00, 0.00, 0.00, 0.00, 0.00, 0.000, 0.000, 0.000, 11:15:09.913, 1561475709913
44, -37935.98, 0.00, 0.00, 0.00, 0.00, 0.00, 0.00, 0.00, 0.082, -0.042, 1.032, 11:15:09.913, 1561475709913
45, -38331.81, 0.00, 0.00, 0.00, 0.00, 0.00, 0.00, 0.00, 0.000, 0.000, 0.000, 11:15:09.913, 1561475709913
46, -37902.43, 0.00, 0.00, 0.00, 0.00, 0.00, 0.00, 0.00, 0.000, 0.000, 0.000, 11:15:09.913, 1561475709913
47, -37442.01, 0.00, 0.00, 0.00, 0.00, 0.00, 0.00, 0.00, 0.000, 0.000, 0.000, 11:15:09.913, 1561475709913
48, -37820.63, 0.00, 0.00, 0.00, 0.00, 0.00, 0.00, 0.00, 0.000, 0.000, 0.000, 11:15:09.913, 1561475709913
49, -38344.13, 0.00, 0.00, 0.00, 0.00, 0.00, 0.00, 0.00, 0.000, 0.000, 0.000, 11:15:09.913, 1561475709913
50, -38030.42, 0.00, 0.00, 0.00, 0.00, 0.00, 0.00, 0.00, 0.000, 0.000, 0.000, 11:15:09.913, 1561475709913
51, -37459.67, 0.00, 0.00, 0.00, 0.00, 0.00, 0.00, 0.00, 0.000, 0.000, 0.000, 11:15:09.913, 1561475709913
52, -37701.85, 0.00, 0.00, 0.00, 0.00, 0.00, 0.00, 0.00, 0.000, 0.000, 0.000, 11:15:09.913, 1561475709913
53, -38308.07, 0.00, 0.00, 0.00, 0.00, 0.00, 0.00, 0.00, 0.000, 0.000, 0.000, 11:15:09.914, 1561475709914
54, -38143.16, 0.00, 0.00, 0.00, 0.00, 0.00, 0.00, 0.00, 0.000, 0.000, 0.000, 11:15:09.914, 1561475709914
55, -37517.91, 0.00, 0.00, 0.00, 0.00, 0.00, 0.00, 0.00, 0.080, -0.040, 1.032, 11:15:09.914, 1561475709914
56, -37621.38, 0.00, 0.00, 0.00, 0.00, 0.00, 0.00, 0.00, 0.000, 0.000, 0.000, 11:15:09.914, 1561475709914
57, -38243.48, 0.00, 0.00, 0.00, 0.00, 0.00, 0.00, 0.00, 0.000, 0.000, 0.000, 11:15:09.914, 1561475709914
58, -38241.24, 0.00, 0.00, 0.00, 0.00, 0.00, 0.00, 0.00, 0.000, 0.000, 0.000, 11:15:09.914, 1561475709914
59, -37617.92, 0.00, 0.00, 0.00, 0.00, 0.00, 0.00, 0.00, 0.000, 0.000, 0.000, 11:15:09.914, 1561475709914
60, -37563.36, 0.00, 0.00, 0.00, 0.00, 0.00, 0.00, 0.00, 0.000, 0.000, 0.000, 11:15:09.914, 1561475709914
61, -38146.29, 0.00, 0.00, 0.00, 0.00, 0.00, 0.00, 0.00, 0.000, 0.000, 0.000, 11:15:09.914, 1561475709914
62, -38272.91, 0.00, 0.00, 0.00, 0.00, 0.00, 0.00, 0.00, 0.000, 0.000, 0.000, 11:15:09.914, 1561475709914
63, -37678.49, 0.00, 0.00, 0.00, 0.00, 0.00, 0.00, 0.00, 0.000, 0.000, 0.000, 11:15:09.914, 1561475709914
64, -37433.71, 0.00, 0.00, 0.00, 0.00, 0.00, 0.00, 0.00, 0.000, 0.000, 0.000, 11:15:09.914, 1561475709914
65, -38014.64, 0.00, 0.00, 0.00, 0.00, 0.00, 0.00, 0.00, 0.080, -0.046, 1.032, 11:15:09.914, 1561475709914
66, -38349.31, 0.00, 0.00, 0.00, 0.00, 0.00, 0.00, 0.00, 0.000, 0.000, 0.000, 11:15:09.914, 1561475709914
67, -37821.86, 0.00, 0.00, 0.00, 0.00, 0.00, 0.00, 0.00, 0.000, 0.000, 0.000, 11:15:09.914, 1561475709914
68, -37443.80, 0.00, 0.00, 0.00, 0.00, 0.00, 0.00, 0.00, 0.000, 0.000, 0.000, 11:15:09.914, 1561475709914
69, -37937.30, 0.00, 0.00, 0.00, 0.00, 0.00, 0.00, 0.00, 0.000, 0.000, 0.000, 11:15:09.914, 1561475709914
70, -38385.95, 0.00, 0.00, 0.00, 0.00, 0.00, 0.00, 0.00, 0.000, 0.000, 0.000, 11:15:09.914, 1561475709914
71, -37946.73, 0.00, 0.00, 0.00, 0.00, 0.00, 0.00, 0.00, 0.000, 0.000, 0.000, 11:15:09.915, 1561475709915
72, -37458.26, 0.00, 0.00, 0.00, 0.00, 0.00, 0.00, 0.00, 0.000, 0.000, 0.000, 11:15:09.915, 1561475709915
73, -37813.76, 0.00, 0.00, 0.00, 0.00, 0.00, 0.00, 0.00, 0.000, 0.000, 0.000, 11:15:09.915, 1561475709915
74, -38325.17, 0.00, 0.00, 0.00, 0.00, 0.00, 0.00, 0.00, 0.000, 0.000, 0.000, 11:15:09.915, 1561475709915
75, -38048.84, 0.00, 0.00, 0.00, 0.00, 0.00, 0.00, 0.00, 0.082, -0.044, 1.030, 11:15:09.915, 1561475709915
76, -37516.22, 0.00, 0.00, 0.00, 0.00, 0.00, 0.00, 0.00, 0.000, 0.000, 0.000, 11:15:10.385, 1561475710385
77, -37748.95, 0.00, 0.00, 0.00, 0.00, 0.00, 0.00, 0.00, 0.000, 0.000, 0.000, 11:15:10.385, 1561475710385
78, -38319.58, 0.00, 0.00, 0.00, 0.00, 0.00, 0.00, 0.00, 0.000, 0.000, 0.000, 11:15:10.385, 1561475710385
79, -38121.82, 0.00, 0.00, 0.00, 0.00, 0.00, 0.00, 0.00, 0.000, 0.000, 0.000, 11:15:10.385, 1561475710385
80, -37521.67, 0.00, 0.00, 0.00, 0.00, 0.00, 0.00, 0.00, 0.000, 0.000, 0.000, 11:15:10.385, 1561475710385
81, -37620.42, 0.00, 0.00, 0.00, 0.00, 0.00, 0.00, 0.00, 0.000, 0.000, 0.000, 11:15:10.385, 1561475710385
82, -38222.35, 0.00, 0.00, 0.00, 0.00, 0.00, 0.00, 0.00, 0.000, 0.000, 0.000, 11:15:10.385, 1561475710385
83, -38230.89, 0.00, 0.00, 0.00, 0.00, 0.00, 0.00, 0.00, 0.000, 0.000, 0.000, 11:15:10.385, 1561475710385
84, -37639.91, 0.00, 0.00, 0.00, 0.00, 0.00, 0.00, 0.00, 0.000, 0.000, 0.000, 11:15:10.385, 1561475710385
85, -37560.41, 0.00, 0.00, 0.00, 0.00, 0.00, 0.00, 0.00, 0.086, -0.050, 1.026, 11:15:10.385, 1561475710385
86, -38158.50, 0.00, 0.00, 0.00, 0.00, 0.00, 0.00, 0.00, 0.000, 0.000, 0.000, 11:15:10.385, 1561475710385
87, -38298.02, 0.00, 0.00, 0.00, 0.00, 0.00, 0.00, 0.00, 0.000, 0.000, 0.000, 11:15:10.385, 1561475710385
88, -37694.83, 0.00, 0.00, 0.00, 0.00, 0.00, 0.00, 0.00, 0.000, 0.000, 0.000, 11:15:10.385, 1561475710385
89, -37465.81, 0.00, 0.00, 0.00, 0.00, 0.00, 0.00, 0.00, 0.000, 0.000, 0.000, 11:15:10.386, 1561475710386
90, -38027.74, 0.00, 0.00, 0.00, 0.00, 0.00, 0.00, 0.00, 0.000, 0.000, 0.000, 11:15:10.386, 1561475710386
91, -38332.01, 0.00, 0.00, 0.00, 0.00, 0.00, 0.00, 0.00, 0.000, 0.000, 0.000, 11:15:10.386, 1561475710386
92, -37778.96, 0.00, 0.00, 0.00, 0.00, 0.00, 0.00, 0.00, 0.000, 0.000, 0.000, 11:15:10.386, 1561475710386
93, -37424.89, 0.00, 0.00, 0.00, 0.00, 0.00, 0.00, 0.00, 0.000, 0.000, 0.000, 11:15:10.386, 1561475710386
94, -37973.40, 0.00, 0.00, 0.00, 0.00, 0.00, 0.00, 0.00, 0.000, 0.000, 0.000, 11:15:10.386, 1561475710386
95, -38392.11, 0.00, 0.00, 0.00, 0.00, 0.00, 0.00, 0.00, 0.082, -0.048, 1.034, 11:15:10.386, 1561475710386
96, -37932.96, 0.00, 0.00, 0.00, 0.00, 0.00, 0.00, 0.00, 0.000, 0.000, 0.000, 11:15:10.386, 1561475710386
97, -37439.26, 0.00, 0.00, 0.00, 0.00, 0.00, 0.00, 0.00, 0.000, 0.000, 0.000, 11:15:10.386, 1561475710386
98, -37816.11, 0.00, 0.00, 0.00, 0.00, 0.00, 0.00, 0.00, 0.000, 0.000, 0.000, 11:15:10.386, 1561475710386
99, -38365.92, 0.00, 0.00, 0.00, 0.00, 0.00, 0.00, 0.00, 0.000, 0.000, 0.000, 11:15:10.386, 1561475710386
100, -38054.43, 0.00, 0.00, 0.00, 0.00, 0.00, 0.00, 0.00, 0.000, 0.000, 0.000, 11:15:10.386, 1561475710386
101, -37462.46, 0.00, 0.00, 0.00, 0.00, 0.00, 0.00, 0.00, 0.000, 0.000, 0.000, 11:15:10.386, 1561475710386
102, -37697.69, 0.00, 0.00, 0.00, 0.00, 0.00, 0.00, 0.00, 0.000, 0.000, 0.000, 11:15:10.386, 1561475710386
103, -38326.13, 0.00, 0.00, 0.00, 0.00, 0.00, 0.00, 0.00, 0.000, 0.000, 0.000, 11:15:10.386, 1561475710386
104, -38202.46, 0.00, 0.00, 0.00, 0.00, 0.00, 0.00, 0.00, 0.000, 0.000, 0.000, 11:15:10.386, 1561475710386
105, -37562.04, 0.00, 0.00, 0.00, 0.00, 0.00, 0.00, 0.00, 0.080, -0.044, 1.034, 11:15:10.387, 1561475710387
106, -37635.73, 0.00, 0.00, 0.00, 0.00, 0.00, 0.00, 0.00, 0.000, 0.000, 0.000, 11:15:10.388, 1561475710388
107, -38264.84, 0.00, 0.00, 0.00, 0.00, 0.00, 0.00, 0.00, 0.000, 0.000, 0.000, 11:15:10.388, 1561475710388
108, -38246.89, 0.00, 0.00, 0.00, 0.00, 0.00, 0.00, 0.00, 0.000, 0.000, 0.000, 11:15:10.389, 1561475710389
109, -37610.56, 0.00, 0.00, 0.00, 0.00, 0.00, 0.00, 0.00, 0.000, 0.000, 0.000, 11:15:10.389, 1561475710389
110, -37527.82, 0.00, 0.00, 0.00, 0.00, 0.00, 0.00, 0.00, 0.000, 0.000, 0.000, 11:15:10.389, 1561475710389
111, -38148.14, 0.00, 0.00, 0.00, 0.00, 0.00, 0.00, 0.00, 0.000, 0.000, 0.000, 11:15:10.389, 1561475710389
112, -38312.25, 0.00, 0.00, 0.00, 0.00, 0.00, 0.00, 0.00, 0.000, 0.000, 0.000, 11:15:10.389, 1561475710389
113, -37730.61, 0.00, 0.00, 0.00, 0.00, 0.00, 0.00, 0.00, 0.000, 0.000, 0.000, 11:15:10.389, 1561475710389
114, -37481.21, 0.00, 0.00, 0.00, 0.00, 0.00, 0.00, 0.00, 0.000, 0.000, 0.000, 11:15:10.389, 1561475710389
115, -38021.57, 0.00, 0.00, 0.00, 0.00, 0.00, 0.00, 0.00, 0.000, 0.000, 0.000, 11:15:10.389, 1561475710389
116, -38331.41, 0.00, 0.00, 0.00, 0.00, 0.00, 0.00, 0.00, 0.080, -0.048, 1.030, 11:15:10.389, 1561475710389
117, -37806.10, 0.00, 0.00, 0.00, 0.00, 0.00, 0.00, 0.00, 0.000, 0.000, 0.000, 11:15:10.389, 1561475710389
118, -37459.55, 0.00, 0.00, 0.00, 0.00, 0.00, 0.00, 0.00, 0.000, 0.000, 0.000, 11:15:10.389, 1561475710389
119, -37970.96, 0.00, 0.00, 0.00, 0.00, 0.00, 0.00, 0.00, 0.000, 0.000, 0.000, 11:15:10.390, 1561475710390
120, -38398.82, 0.00, 0.00, 0.00, 0.00, 0.00, 0.00, 0.00, 0.000, 0.000, 0.000, 11:15:10.390, 1561475710390
121, -37947.34, 0.00, 0.00, 0.00, 0.00, 0.00, 0.00, 0.00, 0.000, 0.000, 0.000, 11:15:10.390, 1561475710390
122, -37437.18, 0.00, 0.00, 0.00, 0.00, 0.00, 0.00, 0.00, 0.000, 0.000, 0.000, 11:15:10.390, 1561475710390
123, -37804.93, 0.00, 0.00, 0.00, 0.00, 0.00, 0.00, 0.00, 0.000, 0.000, 0.000, 11:15:10.390, 1561475710390
124, -38327.14, 0.00, 0.00, 0.00, 0.00, 0.00, 0.00, 0.00, 0.000, 0.000, 0.000, 11:15:10.390, 1561475710390
125, -37986.25, 0.00, 0.00, 0.00, 0.00, 0.00, 0.00, 0.00, 0.000, 0.000, 0.000, 11:15:10.390, 1561475710390
126, -37445.96, 0.00, 0.00, 0.00, 0.00, 0.00, 0.00, 0.00, 0.080, -0.046, 1.030, 11:15:10.390, 1561475710390
127, -37730.35, 0.00, 0.00, 0.00, 0.00, 0.00, 0.00, 0.00, 0.000, 0.000, 0.000, 11:15:10.390, 1561475710390
128, -38347.37, 0.00, 0.00, 0.00, 0.00, 0.00, 0.00, 0.00, 0.000, 0.000, 0.000, 11:15:10.390, 1561475710390
129, -38144.64, 0.00, 0.00, 0.00, 0.00, 0.00, 0.00, 0.00, 0.000, 0.000, 0.000, 11:15:10.390, 1561475710390
130, -37523.32, 0.00, 0.00, 0.00, 0.00, 0.00, 0.00, 0.00, 0.000, 0.000, 0.000, 11:15:10.390, 1561475710390
131, -37623.55, 0.00, 0.00, 0.00, 0.00, 0.00, 0.00, 0.00, 0.000, 0.000, 0.000, 11:15:10.390, 1561475710390
132, -38264.93, 0.00, 0.00, 0.00, 0.00, 0.00, 0.00, 0.00, 0.000, 0.000, 0.000, 11:15:10.390, 1561475710390
133, -38245.53, 0.00, 0.00, 0.00, 0.00, 0.00, 0.00, 0.00, 0.000, 0.000, 0.000, 11:15:10.390, 1561475710390
134, -37617.34, 0.00, 0.00, 0.00, 0.00, 0.00, 0.00, 0.00, 0.000, 0.000, 0.000, 11:15:10.391, 1561475710391
135, -37585.66, 0.00, 0.00, 0.00, 0.00, 0.00, 0.00, 0.00, 0.000, 0.000, 0.000, 11:15:10.391, 1561475710391
136, -38195.38, 0.00, 0.00, 0.00, 0.00, 0.00, 0.00, 0.00, 0.078, -0.050, 1.028, 11:15:10.391, 1561475710391
137, -38315.00, 0.00, 0.00, 0.00, 0.00, 0.00, 0.00, 0.00, 0.000, 0.000, 0.000, 11:15:10.391, 1561475710391
138, -37700.78, 0.00, 0.00, 0.00, 0.00, 0.00, 0.00, 0.00, 0.000, 0.000, 0.000, 11:15:10.391, 1561475710391
139, -37454.97, 0.00, 0.00, 0.00, 0.00, 0.00, 0.00, 0.00, 0.000, 0.000, 0.000, 11:15:10.391, 1561475710391
140, -38021.70, 0.00, 0.00, 0.00, 0.00, 0.00, 0.00, 0.00, 0.000, 0.000, 0.000, 11:15:10.391, 1561475710391
141, -38340.08, 0.00, 0.00, 0.00, 0.00, 0.00, 0.00, 0.00, 0.000, 0.000, 0.000, 11:15:10.391, 1561475710391
142, -37824.13, 0.00, 0.00, 0.00, 0.00, 0.00, 0.00, 0.00, 0.000, 0.000, 0.000, 11:15:10.391, 1561475710391
143, -37467.85, 0.00, 0.00, 0.00, 0.00, 0.00, 0.00, 0.00, 0.000, 0.000, 0.000, 11:15:10.391, 1561475710391
144, -37926.19, 0.00, 0.00, 0.00, 0.00, 0.00, 0.00, 0.00, 0.000, 0.000, 0.000, 11:15:10.391, 1561475710391
145, -38372.11, 0.00, 0.00, 0.00, 0.00, 0.00, 0.00, 0.00, 0.000, 0.000, 0.000, 11:15:10.391, 1561475710391
146, -37936.03, 0.00, 0.00, 0.00, 0.00, 0.00, 0.00, 0.00, 0.080, -0.048, 1.026, 11:15:10.391, 1561475710391
147, -37483.23, 0.00, 0.00, 0.00, 0.00, 0.00, 0.00, 0.00, 0.000, 0.000, 0.000, 11:15:10.391, 1561475710391
148, -37848.43, 0.00, 0.00, 0.00, 0.00, 0.00, 0.00, 0.00, 0.000, 0.000, 0.000, 11:15:10.391, 1561475710391
149, -38358.41, 0.00, 0.00, 0.00, 0.00, 0.00, 0.00, 0.00, 0.000, 0.000, 0.000, 11:15:10.391, 1561475710391
150, -38050.22, 0.00, 0.00, 0.00, 0.00, 0.00, 0.00, 0.00, 0.000, 0.000, 0.000, 11:15:10.392, 1561475710392
151, -37488.79, 0.00, 0.00, 0.00, 0.00, 0.00, 0.00, 0.00, 0.000, 0.000, 0.000, 11:15:10.392, 1561475710392
152, -37745.05, 0.00, 0.00, 0.00, 0.00, 0.00, 0.00, 0.00, 0.000, 0.000, 0.000, 11:15:10.392, 1561475710392
153, -38331.32, 0.00, 0.00, 0.00, 0.00, 0.00, 0.00, 0.00, 0.000, 0.000, 0.000, 11:15:10.392, 1561475710392
154, -38163.50, 0.00, 0.00, 0.00, 0.00, 0.00, 0.00, 0.00, 0.000, 0.000, 0.000, 11:15:10.392, 1561475710392
155, -37526.81, 0.00, 0.00, 0.00, 0.00, 0.00, 0.00, 0.00, 0.000, 0.000, 0.000, 11:15:10.392, 1561475710392
156, -37606.70, 0.00, 0.00, 0.00, 0.00, 0.00, 0.00, 0.00, 0.082, -0.044, 1.030, 11:15:10.392, 1561475710392
157, -38228.39, 0.00, 0.00, 0.00, 0.00, 0.00, 0.00, 0.00, 0.000, 0.000, 0.000, 11:15:10.392, 1561475710392
158, -38228.63, 0.00, 0.00, 0.00, 0.00, 0.00, 0.00, 0.00, 0.000, 0.000, 0.000, 11:15:10.392, 1561475710392
159, -37592.21, 0.00, 0.00, 0.00, 0.00, 0.00, 0.00, 0.00, 0.000, 0.000, 0.000, 11:15:10.392, 1561475710392
160, -37534.59, 0.00, 0.00, 0.00, 0.00, 0.00, 0.00, 0.00, 0.000, 0.000, 0.000, 11:15:10.392, 1561475710392
161, -38156.84, 0.00, 0.00, 0.00, 0.00, 0.00, 0.00, 0.00, 0.000, 0.000, 0.000, 11:15:10.392, 1561475710392
162, -38306.53, 0.00, 0.00, 0.00, 0.00, 0.00, 0.00, 0.00, 0.000, 0.000, 0.000, 11:15:10.393, 1561475710393
163, -37704.84, 0.00, 0.00, 0.00, 0.00, 0.00, 0.00, 0.00, 0.000, 0.000, 0.000, 11:15:10.393, 1561475710393
164, -37484.46, 0.00, 0.00, 0.00, 0.00, 0.00, 0.00, 0.00, 0.000, 0.000, 0.000, 11:15:10.393, 1561475710393
165, -38063.37, 0.00, 0.00, 0.00, 0.00, 0.00, 0.00, 0.00, 0.000, 0.000, 0.000, 11:15:10.393, 1561475710393
166, -38339.52, 0.00, 0.00, 0.00, 0.00, 0.00, 0.00, 0.00, 0.000, 0.000, 0.000, 11:15:10.393, 1561475710393
167, -37830.37, 0.00, 0.00, 0.00, 0.00, 0.00, 0.00, 0.00, 0.086, -0.046, 1.032, 11:15:10.394, 1561475710394
168, -37470.75, 0.00, 0.00, 0.00, 0.00, 0.00, 0.00, 0.00, 0.000, 0.000, 0.000, 11:15:10.394, 1561475710394
169, -37962.87, 0.00, 0.00, 0.00, 0.00, 0.00, 0.00, 0.00, 0.000, 0.000, 0.000, 11:15:10.394, 1561475710394
170, -38368.46, 0.00, 0.00, 0.00, 0.00, 0.00, 0.00, 0.00, 0.000, 0.000, 0.000, 11:15:10.394, 1561475710394
171, -37903.53, 0.00, 0.00, 0.00, 0.00, 0.00, 0.00, 0.00, 0.000, 0.000, 0.000, 11:15:10.394, 1561475710394
172, -37390.24, 0.00, 0.00, 0.00, 0.00, 0.00, 0.00, 0.00, 0.000, 0.000, 0.000, 11:15:10.394, 1561475710394
173, -37775.74, 0.00, 0.00, 0.00, 0.00, 0.00, 0.00, 0.00, 0.000, 0.000, 0.000, 11:15:10.395, 1561475710395
174, -38362.12, 0.00, 0.00, 0.00, 0.00, 0.00, 0.00, 0.00, 0.000, 0.000, 0.000, 11:15:10.395, 1561475710395
175, -38035.67, 0.00, 0.00, 0.00, 0.00, 0.00, 0.00, 0.00, 0.000, 0.000, 0.000, 11:15:10.395, 1561475710395
176, -37469.93, 0.00, 0.00, 0.00, 0.00, 0.00, 0.00, 0.00, 0.000, 0.000, 0.000, 11:15:10.395, 1561475710395
177, -37712.55, 0.00, 0.00, 0.00, 0.00, 0.00, 0.00, 0.00, 0.084, -0.048, 1.030, 11:15:10.395, 1561475710395
178, -38296.32, 0.00, 0.00, 0.00, 0.00, 0.00, 0.00, 0.00, 0.000, 0.000, 0.000, 11:15:10.395, 1561475710395
179, -38145.69, 0.00, 0.00, 0.00, 0.00, 0.00, 0.00, 0.00, 0.000, 0.000, 0.000, 11:15:10.395, 1561475710395
180, -37538.43, 0.00, 0.00, 0.00, 0.00, 0.00, 0.00, 0.00, 0.000, 0.000, 0.000, 11:15:10.395, 1561475710395
181, -37621.32, 0.00, 0.00, 0.00, 0.00, 0.00, 0.00, 0.00, 0.000, 0.000, 0.000, 11:15:10.395, 1561475710395
182, -38261.04, 0.00, 0.00, 0.00, 0.00, 0.00, 0.00, 0.00, 0.000, 0.000, 0.000, 11:15:10.395, 1561475710395
183, -38245.15, 0.00, 0.00, 0.00, 0.00, 0.00, 0.00, 0.00, 0.000, 0.000, 0.000, 11:15:10.395, 1561475710395
184, -37611.46, 0.00, 0.00, 0.00, 0.00, 0.00, 0.00, 0.00, 0.000, 0.000, 0.000, 11:15:10.395, 1561475710395
185, -37579.47, 0.00, 0.00, 0.00, 0.00, 0.00, 0.00, 0.00, 0.000, 0.000, 0.000, 11:15:10.395, 1561475710395
186, -38189.94, 0.00, 0.00, 0.00, 0.00, 0.00, 0.00, 0.00, 0.000, 0.000, 0.000, 11:15:10.395, 1561475710395
187, -38312.99, 0.00, 0.00, 0.00, 0.00, 0.00, 0.00, 0.00, 0.090, -0.046, 1.024, 11:15:10.395, 1561475710395
188, -37724.45, 0.00, 0.00, 0.00, 0.00, 0.00, 0.00, 0.00, 0.000, 0.000, 0.000, 11:15:10.395, 1561475710395
189, -37514.59, 0.00, 0.00, 0.00, 0.00, 0.00, 0.00, 0.00, 0.000, 0.000, 0.000, 11:15:10.396, 1561475710396
190, -38075.59, 0.00, 0.00, 0.00, 0.00, 0.00, 0.00, 0.00, 0.000, 0.000, 0.000, 11:15:10.396, 1561475710396
191, -38377.09, 0.00, 0.00, 0.00, 0.00, 0.00, 0.00, 0.00, 0.000, 0.000, 0.000, 11:15:10.396, 1561475710396
192, -37835.73, 0.00, 0.00, 0.00, 0.00, 0.00, 0.00, 0.00, 0.000, 0.000, 0.000, 11:15:10.396, 1561475710396
193, -37464.72, 0.00, 0.00, 0.00, 0.00, 0.00, 0.00, 0.00, 0.000, 0.000, 0.000, 11:15:10.396, 1561475710396
194, -37938.78, 0.00, 0.00, 0.00, 0.00, 0.00, 0.00, 0.00, 0.000, 0.000, 0.000, 11:15:10.396, 1561475710396
195, -38347.90, 0.00, 0.00, 0.00, 0.00, 0.00, 0.00, 0.00, 0.000, 0.000, 0.000, 11:15:10.396, 1561475710396
196, -37926.95, 0.00, 0.00, 0.00, 0.00, 0.00, 0.00, 0.00, 0.000, 0.000, 0.000, 11:15:10.867, 1561475710867
197, -37462.28, 0.00, 0.00, 0.00, 0.00, 0.00, 0.00, 0.00, 0.088, -0.042, 1.028, 11:15:10.867, 1561475710867
198, -37863.59, 0.00, 0.00, 0.00, 0.00, 0.00, 0.00, 0.00, 0.000, 0.000, 0.000, 11:15:10.867, 1561475710867
199, -38379.06, 0.00, 0.00, 0.00, 0.00, 0.00, 0.00, 0.00, 0.000, 0.000, 0.000, 11:15:10.867, 1561475710867
200, -38054.85, 0.00, 0.00, 0.00, 0.00, 0.00, 0.00, 0.00, 0.000, 0.000, 0.000, 11:15:10.867, 1561475710867
201, -37478.49, 0.00, 0.00, 0.00, 0.00, 0.00, 0.00, 0.00, 0.000, 0.000, 0.000, 11:15:10.867, 1561475710867
202, -37723.20, 0.00, 0.00, 0.00, 0.00, 0.00, 0.00, 0.00, 0.000, 0.000, 0.000, 11:15:10.867, 1561475710867
203, -38317.53, 0.00, 0.00, 0.00, 0.00, 0.00, 0.00, 0.00, 0.000, 0.000, 0.000, 11:15:10.867, 1561475710867
204, -38141.15, 0.00, 0.00, 0.00, 0.00, 0.00, 0.00, 0.00, 0.000, 0.000, 0.000, 11:15:10.867, 1561475710867
205, -37513.45, 0.00, 0.00, 0.00, 0.00, 0.00, 0.00, 0.00, 0.000, 0.000, 0.000, 11:15:10.867, 1561475710867
206, -37641.39, 0.00, 0.00, 0.00, 0.00, 0.00, 0.00, 0.00, 0.000, 0.000, 0.000, 11:15:10.867, 1561475710867
207, -38285.18, 0.00, 0.00, 0.00, 0.00, 0.00, 0.00, 0.00, 0.084, -0.046, 1.026, 11:15:10.867, 1561475710867
208, -38275.19, 0.00, 0.00, 0.00, 0.00, 0.00, 0.00, 0.00, 0.000, 0.000, 0.000, 11:15:10.868, 1561475710868
209, -37642.32, 0.00, 0.00, 0.00, 0.00, 0.00, 0.00, 0.00, 0.000, 0.000, 0.000, 11:15:10.868, 1561475710868
210, -37574.22, 0.00, 0.00, 0.00, 0.00, 0.00, 0.00, 0.00, 0.000, 0.000, 0.000, 11:15:10.868, 1561475710868
211, -38158.76, 0.00, 0.00, 0.00, 0.00, 0.00, 0.00, 0.00, 0.000, 0.000, 0.000, 11:15:10.868, 1561475710868
212, -38305.01, 0.00, 0.00, 0.00, 0.00, 0.00, 0.00, 0.00, 0.000, 0.000, 0.000, 11:15:10.868, 1561475710868
213, -37719.08, 0.00, 0.00, 0.00, 0.00, 0.00, 0.00, 0.00, 0.000, 0.000, 0.000, 11:15:10.868, 1561475710868
214, -37506.34, 0.00, 0.00, 0.00, 0.00, 0.00, 0.00, 0.00, 0.000, 0.000, 0.000, 11:15:10.868, 1561475710868
215, -38051.92, 0.00, 0.00, 0.00, 0.00, 0.00, 0.00, 0.00, 0.000, 0.000, 0.000, 11:15:10.868, 1561475710868
216, -38335.63, 0.00, 0.00, 0.00, 0.00, 0.00, 0.00, 0.00, 0.000, 0.000, 0.000, 11:15:10.868, 1561475710868
217, -37842.84, 0.00, 0.00, 0.00, 0.00, 0.00, 0.00, 0.00, 0.000, 0.000, 0.000, 11:15:10.868, 1561475710868
218, -37483.70, 0.00, 0.00, 0.00, 0.00, 0.00, 0.00, 0.00, 0.082, -0.050, 1.028, 11:15:10.868, 1561475710868
219, -37962.40, 0.00, 0.00, 0.00, 0.00, 0.00, 0.00, 0.00, 0.000, 0.000, 0.000, 11:15:10.868, 1561475710868
220, -38381.05, 0.00, 0.00, 0.00, 0.00, 0.00, 0.00, 0.00, 0.000, 0.000, 0.000, 11:15:10.868, 1561475710868
221, -37948.61, 0.00, 0.00, 0.00, 0.00, 0.00, 0.00, 0.00, 0.000, 0.000, 0.000, 11:15:10.868, 1561475710868
222, -37483.49, 0.00, 0.00, 0.00, 0.00, 0.00, 0.00, 0.00, 0.000, 0.000, 0.000, 11:15:10.868, 1561475710868
223, -37868.39, 0.00, 0.00, 0.00, 0.00, 0.00, 0.00, 0.00, 0.000, 0.000, 0.000, 11:15:10.868, 1561475710868
224, -38377.18, 0.00, 0.00, 0.00, 0.00, 0.00, 0.00, 0.00, 0.000, 0.000, 0.000, 11:15:10.868, 1561475710868
225, -38053.26, 0.00, 0.00, 0.00, 0.00, 0.00, 0.00, 0.00, 0.000, 0.000, 0.000, 11:15:10.868, 1561475710868
226, -37471.09, 0.00, 0.00, 0.00, 0.00, 0.00, 0.00, 0.00, 0.000, 0.000, 0.000, 11:15:10.868, 1561475710868
227, -37738.39, 0.00, 0.00, 0.00, 0.00, 0.00, 0.00, 0.00, 0.000, 0.000, 0.000, 11:15:10.868, 1561475710868
228, -38345.33, 0.00, 0.00, 0.00, 0.00, 0.00, 0.00, 0.00, 0.080, -0.048, 1.028, 11:15:10.868, 1561475710868
229, -38171.13, 0.00, 0.00, 0.00, 0.00, 0.00, 0.00, 0.00, 0.000, 0.000, 0.000, 11:15:10.868, 1561475710868
230, -37520.04, 0.00, 0.00, 0.00, 0.00, 0.00, 0.00, 0.00, 0.000, 0.000, 0.000, 11:15:10.868, 1561475710868
231, -37619.91, 0.00, 0.00, 0.00, 0.00, 0.00, 0.00, 0.00, 0.000, 0.000, 0.000, 11:15:10.868, 1561475710868
232, -38270.12, 0.00, 0.00, 0.00, 0.00, 0.00, 0.00, 0.00, 0.000, 0.000, 0.000, 11:15:10.868, 1561475710868
233, -38271.39, 0.00, 0.00, 0.00, 0.00, 0.00, 0.00, 0.00, 0.000, 0.000, 0.000, 11:15:10.868, 1561475710868
234, -37639.20, 0.00, 0.00, 0.00, 0.00, 0.00, 0.00, 0.00, 0.000, 0.000, 0.000, 11:15:10.869, 1561475710869
235, -37564.77, 0.00, 0.00, 0.00, 0.00, 0.00, 0.00, 0.00, 0.000, 0.000, 0.000, 11:15:10.869, 1561475710869
236, -38177.72, 0.00, 0.00, 0.00, 0.00, 0.00, 0.00, 0.00, 0.000, 0.000, 0.000, 11:15:10.869, 1561475710869
237, -38314.55, 0.00, 0.00, 0.00, 0.00, 0.00, 0.00, 0.00, 0.000, 0.000, 0.000, 11:15:10.869, 1561475710869
238, -37734.08, 0.00, 0.00, 0.00, 0.00, 0.00, 0.00, 0.00, 0.084, -0.052, 1.022, 11:15:10.869, 1561475710869
239, -37522.23, 0.00, 0.00, 0.00, 0.00, 0.00, 0.00, 0.00, 0.000, 0.000, 0.000, 11:15:10.869, 1561475710869
240, -38085.85, 0.00, 0.00, 0.00, 0.00, 0.00, 0.00, 0.00, 0.000, 0.000, 0.000, 11:15:10.869, 1561475710869
241, -38374.59, 0.00, 0.00, 0.00, 0.00, 0.00, 0.00, 0.00, 0.000, 0.000, 0.000, 11:15:10.869, 1561475710869
242, -37851.80, 0.00, 0.00, 0.00, 0.00, 0.00, 0.00, 0.00, 0.000, 0.000, 0.000, 11:15:10.869, 1561475710869
243, -37482.29, 0.00, 0.00, 0.00, 0.00, 0.00, 0.00, 0.00, 0.000, 0.000, 0.000, 11:15:10.869, 1561475710869
244, -37956.10, 0.00, 0.00, 0.00, 0.00, 0.00, 0.00, 0.00, 0.000, 0.000, 0.000, 11:15:10.869, 1561475710869
245, -38375.42, 0.00, 0.00, 0.00, 0.00, 0.00, 0.00, 0.00, 0.000, 0.000, 0.000, 11:15:10.869, 1561475710869
246, -37930.11, 0.00, 0.00, 0.00, 0.00, 0.00, 0.00, 0.00, 0.000, 0.000, 0.000, 11:15:10.869, 1561475710869
247, -37477.57, 0.00, 0.00, 0.00, 0.00, 0.00, 0.00, 0.00, 0.000, 0.000, 0.000, 11:15:10.869, 1561475710869
248, -37901.38, 0.00, 0.00, 0.00, 0.00, 0.00, 0.00, 0.00, 0.078, -0.046, 1.028, 11:15:10.869, 1561475710869
249, -38424.50, 0.00, 0.00, 0.00, 0.00, 0.00, 0.00, 0.00, 0.000, 0.000, 0.000, 11:15:10.869, 1561475710869
250, -38088.38, 0.00, 0.00, 0.00, 0.00, 0.00, 0.00, 0.00, 0.000, 0.000, 0.000, 11:15:10.869, 1561475710869
251, -37515.50, 0.00, 0.00, 0.00, 0.00, 0.00, 0.00, 0.00, 0.000, 0.000, 0.000, 11:15:10.869, 1561475710869
252, -37767.34, 0.00, 0.00, 0.00, 0.00, 0.00, 0.00, 0.00, 0.000, 0.000, 0.000, 11:15:10.869, 1561475710869
253, -38354.90, 0.00, 0.00, 0.00, 0.00, 0.00, 0.00, 0.00, 0.000, 0.000, 0.000, 11:15:10.869, 1561475710869
254, -38161.29, 0.00, 0.00, 0.00, 0.00, 0.00, 0.00, 0.00, 0.000, 0.000, 0.000, 11:15:10.869, 1561475710869
255, -37531.68, 0.00, 0.00, 0.00, 0.00, 0.00, 0.00, 0.00, 0.000, 0.000, 0.000, 11:15:10.869, 1561475710869
0, -37637.09, 0.00, 0.00, 0.00, 0.00, 0.00, 0.00, 0.00, 0.000, 0.000, 0.000, 11:15:10.869, 1561475710869
1, -38257.33, 0.00, 0.00, 0.00, 0.00, 0.00, 0.00, 0.00, 0.000, 0.000, 0.000, 11:15:10.869, 1561475710869
2, -38254.54, 0.00, 0.00, 0.00, 0.00, 0.00, 0.00, 0.00, 0.082, -0.044, 1.032, 11:15:10.869, 1561475710869
3, -37656.14, 0.00, 0.00, 0.00, 0.00, 0.00, 0.00, 0.00, 0.000, 0.000, 0.000, 11:15:10.870, 1561475710870
4, -37577.73, 0.00, 0.00, 0.00, 0.00, 0.00, 0.00, 0.00, 0.000, 0.000, 0.000, 11:15:10.870, 1561475710870
5, -38184.24, 0.00, 0.00, 0.00, 0.00, 0.00, 0.00, 0.00, 0.000, 0.000, 0.000, 11:15:10.870, 1561475710870
6, -38348.75, 0.00, 0.00, 0.00, 0.00, 0.00, 0.00, 0.00, 0.000, 0.000, 0.000, 11:15:10.870, 1561475710870
7, -37739.33, 0.00, 0.00, 0.00, 0.00, 0.00, 0.00, 0.00, 0.000, 0.000, 0.000, 11:15:10.870, 1561475710870
8, -37513.80, 0.00, 0.00, 0.00, 0.00, 0.00, 0.00, 0.00, 0.000, 0.000, 0.000, 11:15:10.870, 1561475710870
9, -38065.89, 0.00, 0.00, 0.00, 0.00, 0.00, 0.00, 0.00, 0.000, 0.000, 0.000, 11:15:10.870, 1561475710870
10, -38378.08, 0.00, 0.00, 0.00, 0.00, 0.00, 0.00, 0.00, 0.000, 0.000, 0.000, 11:15:10.870, 1561475710870
11, -37865.17, 0.00, 0.00, 0.00, 0.00, 0.00, 0.00, 0.00, 0.000, 0.000, 0.000, 11:15:10.870, 1561475710870
12, -37496.77, 0.00, 0.00, 0.00, 0.00, 0.00, 0.00, 0.00, 0.084, -0.042, 1.032, 11:15:10.870, 1561475710870
13, -37956.75, 0.00, 0.00, 0.00, 0.00, 0.00, 0.00, 0.00, 0.000, 0.000, 0.000, 11:15:10.870, 1561475710870
14, -38359.97, 0.00, 0.00, 0.00, 0.00, 0.00, 0.00, 0.00, 0.000, 0.000, 0.000, 11:15:10.870, 1561475710870
15, -37934.20, 0.00, 0.00, 0.00, 0.00, 0.00, 0.00, 0.00, 0.000, 0.000, 0.000, 11:15:10.870, 1561475710870
16, -37442.37, 0.00, 0.00, 0.00, 0.00, 0.00, 0.00, 0.00, 0.000, 0.000, 0.000, 11:15:10.870, 1561475710870
17, -37830.30, 0.00, 0.00, 0.00, 0.00, 0.00, 0.00, 0.00, 0.000, 0.000, 0.000, 11:15:10.870, 1561475710870
18, -38368.82, 0.00, 0.00, 0.00, 0.00, 0.00, 0.00, 0.00, 0.000, 0.000, 0.000, 11:15:10.870, 1561475710870
19, -38074.43, 0.00, 0.00, 0.00, 0.00, 0.00, 0.00, 0.00, 0.000, 0.000, 0.000, 11:15:10.870, 1561475710870
20, -37507.16, 0.00, 0.00, 0.00, 0.00, 0.00, 0.00, 0.00, 0.000, 0.000, 0.000, 11:15:10.870, 1561475710870
21, -37762.09, 0.00, 0.00, 0.00, 0.00, 0.00, 0.00, 0.00, 0.000, 0.000, 0.000, 11:15:10.870, 1561475710870
22, -38340.77, 0.00, 0.00, 0.00, 0.00, 0.00, 0.00, 0.00, 0.000, 0.000, 0.000, 11:15:10.870, 1561475710870
23, -38113.88, 0.00, 0.00, 0.00, 0.00, 0.00, 0.00, 0.00, 0.082, -0.042, 1.030, 11:15:10.870, 1561475710870
24, -37532.85, 0.00, 0.00, 0.00, 0.00, 0.00, 0.00, 0.00, 0.000, 0.000, 0.000, 11:15:10.870, 1561475710870
25, -37659.74, 0.00, 0.00, 0.00, 0.00, 0.00, 0.00, 0.00, 0.000, 0.000, 0.000, 11:15:10.870, 1561475710870
26, -38272.38, 0.00, 0.00, 0.00, 0.00, 0.00, 0.00, 0.00, 0.000, 0.000, 0.000, 11:15:10.870, 1561475710870
27, -38260.75, 0.00, 0.00, 0.00, 0.00, 0.00, 0.00, 0.00, 0.000, 0.000, 0.000, 11:15:10.871, 1561475710871
28, -37651.47, 0.00, 0.00, 0.00, 0.00, 0.00, 0.00, 0.00, 0.000, 0.000, 0.000, 11:15:10.871, 1561475710871
29, -37583.16, 0.00, 0.00, 0.00, 0.00, 0.00, 0.00, 0.00, 0.000, 0.000, 0.000, 11:15:10.871, 1561475710871
30, -38171.68, 0.00, 0.00, 0.00, 0.00, 0.00, 0.00, 0.00, 0.000, 0.000, 0.000, 11:15:10.871, 1561475710871
31, -38311.74, 0.00, 0.00, 0.00, 0.00, 0.00, 0.00, 0.00, 0.000, 0.000, 0.000, 11:15:10.871, 1561475710871
32, -37717.90, 0.00, 0.00, 0.00, 0.00, 0.00, 0.00, 0.00, 0.000, 0.000, 0.000, 11:15:10.871, 1561475710871
33, -37506.88, 0.00, 0.00, 0.00, 0.00, 0.00, 0.00, 0.00, 0.080, -0.044, 1.032, 11:15:10.871, 1561475710871
34, -38093.32, 0.00, 0.00, 0.00, 0.00, 0.00, 0.00, 0.00, 0.000, 0.000, 0.000, 11:15:10.871, 1561475710871
35, -38387.71, 0.00, 0.00, 0.00, 0.00, 0.00, 0.00, 0.00, 0.000, 0.000, 0.000, 11:15:10.871, 1561475710871
36, -37817.16, 0.00, 0.00, 0.00, 0.00, 0.00, 0.00, 0.00, 0.000, 0.000, 0.000, 11:15:10.871, 1561475710871
37, -37449.21, 0.00, 0.00, 0.00, 0.00, 0.00, 0.00, 0.00, 0.000, 0.000, 0.000, 11:15:10.871, 1561475710871
38, -37980.39, 0.00, 0.00, 0.00, 0.00, 0.00, 0.00, 0.00, 0.000, 0.000, 0.000, 11:15:10.871, 1561475710871
39, -38403.45, 0.00, 0.00, 0.00, 0.00, 0.00, 0.00, 0.00, 0.000, 0.000, 0.000, 11:15:10.871, 1561475710871
40, -37945.13, 0.00, 0.00, 0.00, 0.00, 0.00, 0.00, 0.00, 0.000, 0.000, 0.000, 11:15:10.871, 1561475710871
41, -37480.28, 0.00, 0.00, 0.00, 0.00, 0.00, 0.00, 0.00, 0.000, 0.000, 0.000, 11:15:10.871, 1561475710871
42, -37871.72, 0.00, 0.00, 0.00, 0.00, 0.00, 0.00, 0.00, 0.000, 0.000, 0.000, 11:15:10.871, 1561475710871
43, -38380.49, 0.00, 0.00, 0.00, 0.00, 0.00, 0.00, 0.00, 0.082, -0.046, 1.028, 11:15:10.871, 1561475710871
44, -38043.50, 0.00, 0.00, 0.00, 0.00, 0.00, 0.00, 0.00, 0.000, 0.000, 0.000, 11:15:10.871, 1561475710871
45, -37480.43, 0.00, 0.00, 0.00, 0.00, 0.00, 0.00, 0.00, 0.000, 0.000, 0.000, 11:15:10.871, 1561475710871
46, -37727.75, 0.00, 0.00, 0.00, 0.00, 0.00, 0.00, 0.00, 0.000, 0.000, 0.000, 11:15:10.871, 1561475710871
47, -38320.75, 0.00, 0.00, 0.00, 0.00, 0.00, 0.00, 0.00, 0.000, 0.000, 0.000, 11:15:10.871, 1561475710871
48, -38166.47, 0.00, 0.00, 0.00, 0.00, 0.00, 0.00, 0.00, 0.000, 0.000, 0.000, 11:15:10.871, 1561475710871
49, -37584.88, 0.00, 0.00, 0.00, 0.00, 0.00, 0.00, 0.00, 0.000, 0.000, 0.000, 11:15:10.871, 1561475710871
50, -37676.84, 0.00, 0.00, 0.00, 0.00, 0.00, 0.00, 0.00, 0.000, 0.000, 0.000, 11:15:10.871, 1561475710871
51, -38288.20, 0.00, 0.00, 0.00, 0.00, 0.00, 0.00, 0.00, 0.000, 0.000, 0.000, 11:15:10.872, 1561475710872
52, -38243.05, 0.00, 0.00, 0.00, 0.00, 0.00, 0.00, 0.00, 0.000, 0.000, 0.000, 11:15:10.872, 1561475710872
53, -37622.14, 0.00, 0.00, 0.00, 0.00, 0.00, 0.00, 0.00, 0.084, -0.048, 1.034, 11:15:10.872, 1561475710872
54, -37580.48, 0.00, 0.00, 0.00, 0.00, 0.00, 0.00, 0.00, 0.000, 0.000, 0.000, 11:15:10.872, 1561475710872
55, -38202.46, 0.00, 0.00, 0.00, 0.00, 0.00, 0.00, 0.00, 0.000, 0.000, 0.000, 11:15:10.872, 1561475710872
56, -38317.19, 0.00, 0.00, 0.00, 0.00, 0.00, 0.00, 0.00, 0.000, 0.000, 0.000, 11:15:10.872, 1561475710872
57, -37711.53, 0.00, 0.00, 0.00, 0.00, 0.00, 0.00, 0.00, 0.000, 0.000, 0.000, 11:15:10.872, 1561475710872
58, -37453.23, 0.00, 0.00, 0.00, 0.00, 0.00, 0.00, 0.00, 0.000, 0.000, 0.000, 11:15:10.872, 1561475710872
59, -38019.73, 0.00, 0.00, 0.00, 0.00, 0.00, 0.00, 0.00, 0.000, 0.000, 0.000, 11:15:10.872, 1561475710872
60, -38336.53, 0.00, 0.00, 0.00, 0.00, 0.00, 0.00, 0.00, 0.000, 0.000, 0.000, 11:15:11.347, 1561475711347
61, -37803.10, 0.00, 0.00, 0.00, 0.00, 0.00, 0.00, 0.00, 0.000, 0.000, 0.000, 11:15:11.347, 1561475711347
62, -37475.58, 0.00, 0.00, 0.00, 0.00, 0.00, 0.00, 0.00, 0.000, 0.000, 0.000, 11:15:11.347, 1561475711347
63, -37997.56, 0.00, 0.00, 0.00, 0.00, 0.00, 0.00, 0.00, 0.086, -0.048, 1.032, 11:15:11.347, 1561475711347
64, -38421.51, 0.00, 0.00, 0.00, 0.00, 0.00, 0.00, 0.00, 0.000, 0.000, 0.000, 11:15:11.347, 1561475711347
65, -37974.38, 0.00, 0.00, 0.00, 0.00, 0.00, 0.00, 0.00, 0.000, 0.000, 0.000, 11:15:11.347, 1561475711347
66, -37500.41, 0.00, 0.00, 0.00, 0.00, 0.00, 0.00, 0.00, 0.000, 0.000, 0.000, 11:15:11.347, 1561475711347
67, -37895.84, 0.00, 0.00, 0.00, 0.00, 0.00, 0.00, 0.00, 0.000, 0.000, 0.000, 11:15:11.347, 1561475711347
68, -38395.49, 0.00, 0.00, 0.00, 0.00, 0.00, 0.00, 0.00, 0.000, 0.000, 0.000, 11:15:11.347, 1561475711347
69, -38059.07, 0.00, 0.00, 0.00, 0.00, 0.00, 0.00, 0.00, 0.000, 0.000, 0.000, 11:15:11.347, 1561475711347
70, -37493.26, 0.00, 0.00, 0.00, 0.00, 0.00, 0.00, 0.00, 0.000, 0.000, 0.000, 11:15:11.347, 1561475711347
71, -37749.23, 0.00, 0.00, 0.00, 0.00, 0.00, 0.00, 0.00, 0.000, 0.000, 0.000, 11:15:11.347, 1561475711347
72, -38320.63, 0.00, 0.00, 0.00, 0.00, 0.00, 0.00, 0.00, 0.000, 0.000, 0.000, 11:15:11.347, 1561475711347
73, -38132.77, 0.00, 0.00, 0.00, 0.00, 0.00, 0.00, 0.00, 0.000, 0.000, 0.000, 11:15:11.347, 1561475711347
74, -37553.07, 0.00, 0.00, 0.00, 0.00, 0.00, 0.00, 0.00, 0.082, -0.050, 1.024, 11:15:11.347, 1561475711347
75, -37666.64, 0.00, 0.00, 0.00, 0.00, 0.00, 0.00, 0.00, 0.000, 0.000, 0.000, 11:15:11.348, 1561475711348
76, -38292.29, 0.00, 0.00, 0.00, 0.00, 0.00, 0.00, 0.00, 0.000, 0.000, 0.000, 11:15:11.348, 1561475711348
77, -38269.56, 0.00, 0.00, 0.00, 0.00, 0.00, 0.00, 0.00, 0.000, 0.000, 0.000, 11:15:11.348, 1561475711348
78, -37635.91, 0.00, 0.00, 0.00, 0.00, 0.00, 0.00, 0.00, 0.000, 0.000, 0.000, 11:15:11.348, 1561475711348
79, -37580.48, 0.00, 0.00, 0.00, 0.00, 0.00, 0.00, 0.00, 0.000, 0.000, 0.000, 11:15:11.348, 1561475711348
80, -38173.83, 0.00, 0.00, 0.00, 0.00, 0.00, 0.00, 0.00, 0.000, 0.000, 0.000, 11:15:11.348, 1561475711348
81, -38309.66, 0.00, 0.00, 0.00, 0.00, 0.00, 0.00, 0.00, 0.000, 0.000, 0.000, 11:15:11.348, 1561475711348
82, -37740.38, 0.00, 0.00, 0.00, 0.00, 0.00, 0.00, 0.00, 0.000, 0.000, 0.000, 11:15:11.348, 1561475711348
83, -37519.57, 0.00, 0.00, 0.00, 0.00, 0.00, 0.00, 0.00, 0.000, 0.000, 0.000, 11:15:11.348, 1561475711348
84, -38078.07, 0.00, 0.00, 0.00, 0.00, 0.00, 0.00, 0.00, 0.090, -0.048, 1.026, 11:15:11.348, 1561475711348
85, -38352.64, 0.00, 0.00, 0.00, 0.00, 0.00, 0.00, 0.00, 0.000, 0.000, 0.000, 11:15:11.348, 1561475711348
86, -37826.91, 0.00, 0.00, 0.00, 0.00, 0.00, 0.00, 0.00, 0.000, 0.000, 0.000, 11:15:11.348, 1561475711348
87, -37493.53, 0.00, 0.00, 0.00, 0.00, 0.00, 0.00, 0.00, 0.000, 0.000, 0.000, 11:15:11.348, 1561475711348
88, -37981.67, 0.00, 0.00, 0.00, 0.00, 0.00, 0.00, 0.00, 0.000, 0.000, 0.000, 11:15:11.348, 1561475711348
89, -38391.94, 0.00, 0.00, 0.00, 0.00, 0.00, 0.00, 0.00, 0.000, 0.000, 0.000, 11:15:11.348, 1561475711348
90, -37944.59, 0.00, 0.00, 0.00, 0.00, 0.00, 0.00, 0.00, 0.000, 0.000, 0.000, 11:15:11.348, 1561475711348
91, -37466.51, 0.00, 0.00, 0.00, 0.00, 0.00, 0.00, 0.00, 0.000, 0.000, 0.000, 11:15:11.348, 1561475711348
92, -37858.33, 0.00, 0.00, 0.00, 0.00, 0.00, 0.00, 0.00, 0.000, 0.000, 0.000, 11:15:11.348, 1561475711348
93, -38369.38, 0.00, 0.00, 0.00, 0.00, 0.00, 0.00, 0.00, 0.000, 0.000, 0.000, 11:15:11.348, 1561475711348
94, -38027.54, 0.00, 0.00, 0.00, 0.00, 0.00, 0.00, 0.00, 0.090, -0.046, 1.030, 11:15:11.348, 1561475711348
95, -37465.37, 0.00, 0.00, 0.00, 0.00, 0.00, 0.00, 0.00, 0.000, 0.000, 0.000, 11:15:11.348, 1561475711348
96, -37769.91, 0.00, 0.00, 0.00, 0.00, 0.00, 0.00, 0.00, 0.000, 0.000, 0.000, 11:15:11.348, 1561475711348
97, -38342.85, 0.00, 0.00, 0.00, 0.00, 0.00, 0.00, 0.00, 0.000, 0.000, 0.000, 11:15:11.348, 1561475711348
98, -38132.34, 0.00, 0.00, 0.00, 0.00, 0.00, 0.00, 0.00, 0.000, 0.000, 0.000, 11:15:11.348, 1561475711348
