%OpenBCI Raw EEG Data
%Number of channels = 8
%Sample Rate = 250.0 Hz
%First Column = SampleIndex
%Last Column = Timestamp 
%Other Columns = EEG data in microvolts followed by Accel Data (in G) interleaved with Aux Data
0, 0.00, 0.00, 0.00, 0.00, 0.00, 0.00, 0.00, 0.00, 0.000, 0.000, 0.000, 11:06:05.218, 1561475165218
1, -37386.60, 0.00, 0.00, 0.00, 0.00, 0.00, 0.00, 0.00, 0.080, -0.038, 1.034, 11:06:05.703, 1561475165703
2, -37136.80, 0.00, 0.00, 0.00, 0.00, 0.00, 0.00, 0.00, 0.000, 0.000, 0.000, 11:06:05.703, 1561475165703
3, -36597.63, 0.00, 0.00, 0.00, 0.00, 0.00, 0.00, 0.00, 0.000, 0.000, 0.000, 11:06:05.703, 1561475165703
4, -36778.88, 0.00, 0.00, 0.00, 0.00, 0.00, 0.00, 0.00, 0.000, 0.000, 0.000, 11:06:05.703, 1561475165703
5, -37331.75, 0.00, 0.00, 0.00, 0.00, 0.00, 0.00, 0.00, 0.000, 0.000, 0.000, 11:06:05.703, 1561475165703
6, -37227.32, 0.00, 0.00, 0.00, 0.00, 0.00, 0.00, 0.00, 0.000, 0.000, 0.000, 11:06:05.703, 1561475165703
7, -36667.23, 0.00, 0.00, 0.00, 0.00, 0.00, 0.00, 0.00, 0.000, 0.000, 0.000, 11:06:05.703, 1561475165703
8, -36715.67, 0.00, 0.00, 0.00, 0.00, 0.00, 0.00, 0.00, 0.084, -0.048, 1.030, 11:06:05.703, 1561475165703
9, -37277.70, 0.00, 0.00, 0.00, 0.00, 0.00, 0.00, 0.00, 0.000, 0.000, 0.000, 11:06:05.703, 1561475165703
10, -37301.86, 0.00, 0.00, 0.00, 0.00, 0.00, 0.00, 0.00, 0.000, 0.000, 0.000, 11:06:05.704, 1561475165704
11, -36726.02, 0.00, 0.00, 0.00, 0.00, 0.00, 0.00, 0.00, 0.000, 0.000, 0.000, 11:06:05.704, 1561475165704
12, -36617.07, 0.00, 0.00, 0.00, 0.00, 0.00, 0.00, 0.00, 0.000, 0.000, 0.000, 11:06:05.704, 1561475165704
13, -37186.62, 0.00, 0.00, 0.00, 0.00, 0.00, 0.00, 0.00, 0.000, 0.000, 0.000, 11:06:05.704, 1561475165704
14, -37363.87, 0.00, 0.00, 0.00, 0.00, 0.00, 0.00, 0.00, 0.000, 0.000, 0.000, 11:06:05.704, 1561475165704
15, -36836.93, 0.00, 0.00, 0.00, 0.00, 0.00, 0.00, 0.00, 0.000, 0.000, 0.000, 11:06:05.704, 1561475165704
16, -36574.76, 0.00, 0.00, 0.00, 0.00, 0.00, 0.00, 0.00, 0.000, 0.000, 0.000, 11:06:05.704, 1561475165704
17, -37070.34, 0.00, 0.00, 0.00, 0.00, 0.00, 0.00, 0.00, 0.000, 0.000, 0.000, 11:06:05.704, 1561475165704
18, -37395.07, 0.00, 0.00, 0.00, 0.00, 0.00, 0.00, 0.00, 0.086, -0.044, 1.034, 11:06:05.704, 1561475165704
19, -36946.96, 0.00, 0.00, 0.00, 0.00, 0.00, 0.00, 0.00, 0.000, 0.000, 0.000, 11:06:05.704, 1561475165704
20, -36567.50, 0.00, 0.00, 0.00, 0.00, 0.00, 0.00, 0.00, 0.000, 0.000, 0.000, 11:06:05.704, 1561475165704
21, -36972.04, 0.00, 0.00, 0.00, 0.00, 0.00, 0.00, 0.00, 0.000, 0.000, 0.000, 11:06:05.704, 1561475165704
22, -37380.56, 0.00, 0.00, 0.00, 0.00, 0.00, 0.00, 0.00, 0.000, 0.000, 0.000, 11:06:05.704, 1561475165704
23, -37015.56, 0.00, 0.00, 0.00, 0.00, 0.00, 0.00, 0.00, 0.000, 0.000, 0.000, 11:06:05.704, 1561475165704
24, -36564.79, 0.00, 0.00, 0.00, 0.00, 0.00, 0.00, 0.00, 0.000, 0.000, 0.000, 11:06:05.704, 1561475165704
25, -36873.74, 0.00, 0.00, 0.00, 0.00, 0.00, 0.00, 0.00, 0.000, 0.000, 0.000, 11:06:05.705, 1561475165705
26, -37372.72, 0.00, 0.00, 0.00, 0.00, 0.00, 0.00, 0.00, 0.000, 0.000, 0.000, 11:06:05.705, 1561475165705
27, -37137.73, 0.00, 0.00, 0.00, 0.00, 0.00, 0.00, 0.00, 0.000, 0.000, 0.000, 11:06:05.705, 1561475165705
28, -36598.95, 0.00, 0.00, 0.00, 0.00, 0.00, 0.00, 0.00, 0.082, -0.048, 1.032, 11:06:05.705, 1561475165705
29, -36766.74, 0.00, 0.00, 0.00, 0.00, 0.00, 0.00, 0.00, 0.000, 0.000, 0.000, 11:06:05.705, 1561475165705
30, -37302.02, 0.00, 0.00, 0.00, 0.00, 0.00, 0.00, 0.00, 0.000, 0.000, 0.000, 11:06:05.705, 1561475165705
31, -37193.64, 0.00, 0.00, 0.00, 0.00, 0.00, 0.00, 0.00, 0.000, 0.000, 0.000, 11:06:05.705, 1561475165705
32, -36653.98, 0.00, 0.00, 0.00, 0.00, 0.00, 0.00, 0.00, 0.000, 0.000, 0.000, 11:06:05.705, 1561475165705
33, -36713.23, 0.00, 0.00, 0.00, 0.00, 0.00, 0.00, 0.00, 0.000, 0.000, 0.000, 11:06:05.705, 1561475165705
34, -37300.68, 0.00, 0.00, 0.00, 0.00, 0.00, 0.00, 0.00, 0.000, 0.000, 0.000, 11:06:05.705, 1561475165705
35, -37337.92, 0.00, 0.00, 0.00, 0.00, 0.00, 0.00, 0.00, 0.000, 0.000, 0.000, 11:06:05.705, 1561475165705
36, -36762.74, 0.00, 0.00, 0.00, 0.00, 0.00, 0.00, 0.00, 0.000, 0.000, 0.000, 11:06:05.705, 1561475165705
37, -36625.70, 0.00, 0.00, 0.00, 0.00, 0.00, 0.00, 0.00, 0.000, 0.000, 0.000, 11:06:05.705, 1561475165705
38, -37171.24, 0.00, 0.00, 0.00, 0.00, 0.00, 0.00, 0.00, 0.000, 0.000, 0.000, 11:06:05.705, 1561475165705
39, -37348.96, 0.00, 0.00, 0.00, 0.00, 0.00, 0.00, 0.00, 0.080, -0.048, 1.028, 11:06:05.705, 1561475165705
40, -36824.48, 0.00, 0.00, 0.00, 0.00, 0.00, 0.00, 0.00, 0.000, 0.000, 0.000, 11:06:05.705, 1561475165705
41, -36561.89, 0.00, 0.00, 0.00, 0.00, 0.00, 0.00, 0.00, 0.000, 0.000, 0.000, 11:06:05.706, 1561475165706
42, -37051.28, 0.00, 0.00, 0.00, 0.00, 0.00, 0.00, 0.00, 0.000, 0.000, 0.000, 11:06:05.706, 1561475165706
43, -37364.40, 0.00, 0.00, 0.00, 0.00, 0.00, 0.00, 0.00, 0.000, 0.000, 0.000, 11:06:05.706, 1561475165706
44, -36902.35, 0.00, 0.00, 0.00, 0.00, 0.00, 0.00, 0.00, 0.000, 0.000, 0.000, 11:06:05.706, 1561475165706
45, -36542.57, 0.00, 0.00, 0.00, 0.00, 0.00, 0.00, 0.00, 0.000, 0.000, 0.000, 11:06:05.706, 1561475165706
46, -36984.74, 0.00, 0.00, 0.00, 0.00, 0.00, 0.00, 0.00, 0.000, 0.000, 0.000, 11:06:05.706, 1561475165706
47, -37399.52, 0.00, 0.00, 0.00, 0.00, 0.00, 0.00, 0.00, 0.000, 0.000, 0.000, 11:06:05.706, 1561475165706
48, -37037.49, 0.00, 0.00, 0.00, 0.00, 0.00, 0.00, 0.00, 0.000, 0.000, 0.000, 11:06:05.706, 1561475165706
49, -36583.59, 0.00, 0.00, 0.00, 0.00, 0.00, 0.00, 0.00, 0.088, -0.048, 1.032, 11:06:05.706, 1561475165706
50, -36911.16, 0.00, 0.00, 0.00, 0.00, 0.00, 0.00, 0.00, 0.000, 0.000, 0.000, 11:06:05.706, 1561475165706
51, -37409.44, 0.00, 0.00, 0.00, 0.00, 0.00, 0.00, 0.00, 0.000, 0.000, 0.000, 11:06:05.706, 1561475165706
52, -37151.53, 0.00, 0.00, 0.00, 0.00, 0.00, 0.00, 0.00, 0.000, 0.000, 0.000, 11:06:05.706, 1561475165706
53, -36601.96, 0.00, 0.00, 0.00, 0.00, 0.00, 0.00, 0.00, 0.000, 0.000, 0.000, 11:06:05.706, 1561475165706
54, -36754.40, 0.00, 0.00, 0.00, 0.00, 0.00, 0.00, 0.00, 0.000, 0.000, 0.000, 11:06:05.706, 1561475165706
55, -37305.55, 0.00, 0.00, 0.00, 0.00, 0.00, 0.00, 0.00, 0.000, 0.000, 0.000, 11:06:05.706, 1561475165706
56, -37190.69, 0.00, 0.00, 0.00, 0.00, 0.00, 0.00, 0.00, 0.000, 0.000, 0.000, 11:06:05.706, 1561475165706
57, -36654.56, 0.00, 0.00, 0.00, 0.00, 0.00, 0.00, 0.00, 0.000, 0.000, 0.000, 11:06:05.707, 1561475165707
58, -36709.25, 0.00, 0.00, 0.00, 0.00, 0.00, 0.00, 0.00, 0.000, 0.000, 0.000, 11:06:05.707, 1561475165707
59, -37285.82, 0.00, 0.00, 0.00, 0.00, 0.00, 0.00, 0.00, 0.088, -0.052, 1.030, 11:06:05.707, 1561475165707
60, -37321.64, 0.00, 0.00, 0.00, 0.00, 0.00, 0.00, 0.00, 0.000, 0.000, 0.000, 11:06:05.707, 1561475165707
61, -36752.35, 0.00, 0.00, 0.00, 0.00, 0.00, 0.00, 0.00, 0.000, 0.000, 0.000, 11:06:05.707, 1561475165707
62, -36633.05, 0.00, 0.00, 0.00, 0.00, 0.00, 0.00, 0.00, 0.000, 0.000, 0.000, 11:06:05.707, 1561475165707
63, -37172.11, 0.00, 0.00, 0.00, 0.00, 0.00, 0.00, 0.00, 0.000, 0.000, 0.000, 11:06:05.707, 1561475165707
64, -37367.62, 0.00, 0.00, 0.00, 0.00, 0.00, 0.00, 0.00, 0.000, 0.000, 0.000, 11:06:05.707, 1561475165707
65, -36831.23, 0.00, 0.00, 0.00, 0.00, 0.00, 0.00, 0.00, 0.000, 0.000, 0.000, 11:06:05.707, 1561475165707
66, -36555.81, 0.00, 0.00, 0.00, 0.00, 0.00, 0.00, 0.00, 0.000, 0.000, 0.000, 11:06:05.707, 1561475165707
67, -37066.95, 0.00, 0.00, 0.00, 0.00, 0.00, 0.00, 0.00, 0.000, 0.000, 0.000, 11:06:05.707, 1561475165707
68, -37385.55, 0.00, 0.00, 0.00, 0.00, 0.00, 0.00, 0.00, 0.000, 0.000, 0.000, 11:06:05.707, 1561475165707
69, -36915.45, 0.00, 0.00, 0.00, 0.00, 0.00, 0.00, 0.00, 0.084, -0.050, 1.022, 11:06:05.707, 1561475165707
70, -36539.27, 0.00, 0.00, 0.00, 0.00, 0.00, 0.00, 0.00, 0.000, 0.000, 0.000, 11:06:05.707, 1561475165707
71, -36992.29, 0.00, 0.00, 0.00, 0.00, 0.00, 0.00, 0.00, 0.000, 0.000, 0.000, 11:06:05.707, 1561475165707
72, -37412.33, 0.00, 0.00, 0.00, 0.00, 0.00, 0.00, 0.00, 0.000, 0.000, 0.000, 11:06:05.708, 1561475165708
73, -37027.41, 0.00, 0.00, 0.00, 0.00, 0.00, 0.00, 0.00, 0.000, 0.000, 0.000, 11:06:05.708, 1561475165708
74, -36554.89, 0.00, 0.00, 0.00, 0.00, 0.00, 0.00, 0.00, 0.000, 0.000, 0.000, 11:06:05.708, 1561475165708
75, -36861.07, 0.00, 0.00, 0.00, 0.00, 0.00, 0.00, 0.00, 0.000, 0.000, 0.000, 11:06:05.708, 1561475165708
76, -37387.07, 0.00, 0.00, 0.00, 0.00, 0.00, 0.00, 0.00, 0.000, 0.000, 0.000, 11:06:05.708, 1561475165708
77, -37127.43, 0.00, 0.00, 0.00, 0.00, 0.00, 0.00, 0.00, 0.000, 0.000, 0.000, 11:06:05.708, 1561475165708
78, -36600.33, 0.00, 0.00, 0.00, 0.00, 0.00, 0.00, 0.00, 0.000, 0.000, 0.000, 11:06:05.708, 1561475165708
79, -36783.95, 0.00, 0.00, 0.00, 0.00, 0.00, 0.00, 0.00, 0.080, -0.050, 1.030, 11:06:05.708, 1561475165708
80, -37332.20, 0.00, 0.00, 0.00, 0.00, 0.00, 0.00, 0.00, 0.000, 0.000, 0.000, 11:06:05.708, 1561475165708
81, -37225.64, 0.00, 0.00, 0.00, 0.00, 0.00, 0.00, 0.00, 0.000, 0.000, 0.000, 11:06:05.708, 1561475165708
82, -36631.00, 0.00, 0.00, 0.00, 0.00, 0.00, 0.00, 0.00, 0.000, 0.000, 0.000, 11:06:05.708, 1561475165708
83, -36652.93, 0.00, 0.00, 0.00, 0.00, 0.00, 0.00, 0.00, 0.000, 0.000, 0.000, 11:06:05.708, 1561475165708
84, -37235.75, 0.00, 0.00, 0.00, 0.00, 0.00, 0.00, 0.00, 0.000, 0.000, 0.000, 11:06:05.708, 1561475165708
85, -37281.81, 0.00, 0.00, 0.00, 0.00, 0.00, 0.00, 0.00, 0.000, 0.000, 0.000, 11:06:05.708, 1561475165708
86, -36709.57, 0.00, 0.00, 0.00, 0.00, 0.00, 0.00, 0.00, 0.000, 0.000, 0.000, 11:06:05.708, 1561475165708
87, -36605.47, 0.00, 0.00, 0.00, 0.00, 0.00, 0.00, 0.00, 0.000, 0.000, 0.000, 11:06:05.709, 1561475165709
88, -37187.91, 0.00, 0.00, 0.00, 0.00, 0.00, 0.00, 0.00, 0.000, 0.000, 0.000, 11:06:05.709, 1561475165709
89, -37352.25, 0.00, 0.00, 0.00, 0.00, 0.00, 0.00, 0.00, 0.084, -0.052, 1.032, 11:06:05.709, 1561475165709
90, -36809.50, 0.00, 0.00, 0.00, 0.00, 0.00, 0.00, 0.00, 0.000, 0.000, 0.000, 11:06:05.709, 1561475165709
91, -36565.93, 0.00, 0.00, 0.00, 0.00, 0.00, 0.00, 0.00, 0.000, 0.000, 0.000, 11:06:05.709, 1561475165709
92, -37070.41, 0.00, 0.00, 0.00, 0.00, 0.00, 0.00, 0.00, 0.000, 0.000, 0.000, 11:06:05.709, 1561475165709
93, -37375.58, 0.00, 0.00, 0.00, 0.00, 0.00, 0.00, 0.00, 0.000, 0.000, 0.000, 11:06:05.709, 1561475165709
94, -36908.29, 0.00, 0.00, 0.00, 0.00, 0.00, 0.00, 0.00, 0.000, 0.000, 0.000, 11:06:05.709, 1561475165709
95, -36530.84, 0.00, 0.00, 0.00, 0.00, 0.00, 0.00, 0.00, 0.000, 0.000, 0.000, 11:06:05.710, 1561475165710
96, -36952.71, 0.00, 0.00, 0.00, 0.00, 0.00, 0.00, 0.00, 0.000, 0.000, 0.000, 11:06:05.710, 1561475165710
97, -37391.00, 0.00, 0.00, 0.00, 0.00, 0.00, 0.00, 0.00, 0.000, 0.000, 0.000, 11:06:05.710, 1561475165710
98, -37017.50, 0.00, 0.00, 0.00, 0.00, 0.00, 0.00, 0.00, 0.000, 0.000, 0.000, 11:06:05.710, 1561475165710
99, -36534.75, 0.00, 0.00, 0.00, 0.00, 0.00, 0.00, 0.00, 0.000, 0.000, 0.000, 11:06:05.710, 1561475165710
100, -36843.83, 0.00, 0.00, 0.00, 0.00, 0.00, 0.00, 0.00, 0.084, -0.052, 1.034, 11:06:05.710, 1561475165710
101, -37363.22, 0.00, 0.00, 0.00, 0.00, 0.00, 0.00, 0.00, 0.000, 0.000, 0.000, 11:06:05.710, 1561475165710
102, -37107.58, 0.00, 0.00, 0.00, 0.00, 0.00, 0.00, 0.00, 0.000, 0.000, 0.000, 11:06:05.711, 1561475165711
103, -36573.89, 0.00, 0.00, 0.00, 0.00, 0.00, 0.00, 0.00, 0.000, 0.000, 0.000, 11:06:05.711, 1561475165711
104, -36789.99, 0.00, 0.00, 0.00, 0.00, 0.00, 0.00, 0.00, 0.000, 0.000, 0.000, 11:06:05.711, 1561475165711
105, -37331.46, 0.00, 0.00, 0.00, 0.00, 0.00, 0.00, 0.00, 0.000, 0.000, 0.000, 11:06:05.711, 1561475165711
106, -37211.83, 0.00, 0.00, 0.00, 0.00, 0.00, 0.00, 0.00, 0.000, 0.000, 0.000, 11:06:05.711, 1561475165711
107, -36631.69, 0.00, 0.00, 0.00, 0.00, 0.00, 0.00, 0.00, 0.000, 0.000, 0.000, 11:06:05.711, 1561475165711
108, -36684.02, 0.00, 0.00, 0.00, 0.00, 0.00, 0.00, 0.00, 0.000, 0.000, 0.000, 11:06:05.711, 1561475165711
109, -37252.80, 0.00, 0.00, 0.00, 0.00, 0.00, 0.00, 0.00, 0.000, 0.000, 0.000, 11:06:05.711, 1561475165711
110, -37272.07, 0.00, 0.00, 0.00, 0.00, 0.00, 0.00, 0.00, 0.086, -0.044, 1.030, 11:06:05.711, 1561475165711
111, -36734.82, 0.00, 0.00, 0.00, 0.00, 0.00, 0.00, 0.00, 0.000, 0.000, 0.000, 11:06:05.711, 1561475165711
112, -36633.26, 0.00, 0.00, 0.00, 0.00, 0.00, 0.00, 0.00, 0.000, 0.000, 0.000, 11:06:05.711, 1561475165711
113, -37167.62, 0.00, 0.00, 0.00, 0.00, 0.00, 0.00, 0.00, 0.000, 0.000, 0.000, 11:06:05.711, 1561475165711
114, -37336.44, 0.00, 0.00, 0.00, 0.00, 0.00, 0.00, 0.00, 0.000, 0.000, 0.000, 11:06:05.711, 1561475165711
115, -36811.85, 0.00, 0.00, 0.00, 0.00, 0.00, 0.00, 0.00, 0.000, 0.000, 0.000, 11:06:05.711, 1561475165711
116, -36569.51, 0.00, 0.00, 0.00, 0.00, 0.00, 0.00, 0.00, 0.000, 0.000, 0.000, 11:06:05.711, 1561475165711
117, -37066.37, 0.00, 0.00, 0.00, 0.00, 0.00, 0.00, 0.00, 0.000, 0.000, 0.000, 11:06:05.712, 1561475165712
118, -37353.81, 0.00, 0.00, 0.00, 0.00, 0.00, 0.00, 0.00, 0.000, 0.000, 0.000, 11:06:05.712, 1561475165712
119, -36883.11, 0.00, 0.00, 0.00, 0.00, 0.00, 0.00, 0.00, 0.000, 0.000, 0.000, 11:06:05.712, 1561475165712
120, -36519.46, 0.00, 0.00, 0.00, 0.00, 0.00, 0.00, 0.00, 0.090, -0.052, 1.030, 11:06:05.712, 1561475165712
121, -36995.69, 0.00, 0.00, 0.00, 0.00, 0.00, 0.00, 0.00, 0.000, 0.000, 0.000, 11:06:06.184, 1561475166184
122, -37433.16, 0.00, 0.00, 0.00, 0.00, 0.00, 0.00, 0.00, 0.000, 0.000, 0.000, 11:06:06.184, 1561475166184
123, -37035.10, 0.00, 0.00, 0.00, 0.00, 0.00, 0.00, 0.00, 0.000, 0.000, 0.000, 11:06:06.184, 1561475166184
124, -36572.73, 0.00, 0.00, 0.00, 0.00, 0.00, 0.00, 0.00, 0.000, 0.000, 0.000, 11:06:06.184, 1561475166184
125, -36890.48, 0.00, 0.00, 0.00, 0.00, 0.00, 0.00, 0.00, 0.000, 0.000, 0.000, 11:06:06.185, 1561475166185
126, -37396.03, 0.00, 0.00, 0.00, 0.00, 0.00, 0.00, 0.00, 0.000, 0.000, 0.000, 11:06:06.185, 1561475166185
127, -37142.61, 0.00, 0.00, 0.00, 0.00, 0.00, 0.00, 0.00, 0.000, 0.000, 0.000, 11:06:06.185, 1561475166185
128, -36597.92, 0.00, 0.00, 0.00, 0.00, 0.00, 0.00, 0.00, 0.000, 0.000, 0.000, 11:06:06.185, 1561475166185
129, -36778.09, 0.00, 0.00, 0.00, 0.00, 0.00, 0.00, 0.00, 0.000, 0.000, 0.000, 11:06:06.185, 1561475166185
130, -37334.39, 0.00, 0.00, 0.00, 0.00, 0.00, 0.00, 0.00, 0.090, -0.052, 1.030, 11:06:06.185, 1561475166185
131, -37219.21, 0.00, 0.00, 0.00, 0.00, 0.00, 0.00, 0.00, 0.000, 0.000, 0.000, 11:06:06.185, 1561475166185
132, -36628.05, 0.00, 0.00, 0.00, 0.00, 0.00, 0.00, 0.00, 0.000, 0.000, 0.000, 11:06:06.185, 1561475166185
133, -36680.38, 0.00, 0.00, 0.00, 0.00, 0.00, 0.00, 0.00, 0.000, 0.000, 0.000, 11:06:06.186, 1561475166186
134, -37286.22, 0.00, 0.00, 0.00, 0.00, 0.00, 0.00, 0.00, 0.000, 0.000, 0.000, 11:06:06.186, 1561475166186
135, -37303.32, 0.00, 0.00, 0.00, 0.00, 0.00, 0.00, 0.00, 0.000, 0.000, 0.000, 11:06:06.186, 1561475166186
136, -36717.07, 0.00, 0.00, 0.00, 0.00, 0.00, 0.00, 0.00, 0.000, 0.000, 0.000, 11:06:06.186, 1561475166186
137, -36644.14, 0.00, 0.00, 0.00, 0.00, 0.00, 0.00, 0.00, 0.000, 0.000, 0.000, 11:06:06.186, 1561475166186
138, -37202.73, 0.00, 0.00, 0.00, 0.00, 0.00, 0.00, 0.00, 0.000, 0.000, 0.000, 11:06:06.186, 1561475166186
139, -37360.83, 0.00, 0.00, 0.00, 0.00, 0.00, 0.00, 0.00, 0.000, 0.000, 0.000, 11:06:06.186, 1561475166186
140, -36816.88, 0.00, 0.00, 0.00, 0.00, 0.00, 0.00, 0.00, 0.092, -0.050, 1.024, 11:06:06.186, 1561475166186
141, -36583.34, 0.00, 0.00, 0.00, 0.00, 0.00, 0.00, 0.00, 0.000, 0.000, 0.000, 11:06:06.186, 1561475166186
142, -37094.02, 0.00, 0.00, 0.00, 0.00, 0.00, 0.00, 0.00, 0.000, 0.000, 0.000, 11:06:06.186, 1561475166186
143, -37395.27, 0.00, 0.00, 0.00, 0.00, 0.00, 0.00, 0.00, 0.000, 0.000, 0.000, 11:06:06.186, 1561475166186
144, -36944.82, 0.00, 0.00, 0.00, 0.00, 0.00, 0.00, 0.00, 0.000, 0.000, 0.000, 11:06:06.187, 1561475166187
145, -36559.09, 0.00, 0.00, 0.00, 0.00, 0.00, 0.00, 0.00, 0.000, 0.000, 0.000, 11:06:06.187, 1561475166187
146, -36971.26, 0.00, 0.00, 0.00, 0.00, 0.00, 0.00, 0.00, 0.000, 0.000, 0.000, 11:06:06.187, 1561475166187
147, -37386.98, 0.00, 0.00, 0.00, 0.00, 0.00, 0.00, 0.00, 0.000, 0.000, 0.000, 11:06:06.187, 1561475166187
148, -37007.85, 0.00, 0.00, 0.00, 0.00, 0.00, 0.00, 0.00, 0.000, 0.000, 0.000, 11:06:06.187, 1561475166187
149, -36565.26, 0.00, 0.00, 0.00, 0.00, 0.00, 0.00, 0.00, 0.000, 0.000, 0.000, 11:06:06.187, 1561475166187
150, -36887.33, 0.00, 0.00, 0.00, 0.00, 0.00, 0.00, 0.00, 0.000, 0.000, 0.000, 11:06:06.187, 1561475166187
151, -37398.73, 0.00, 0.00, 0.00, 0.00, 0.00, 0.00, 0.00, 0.096, -0.054, 1.024, 11:06:06.187, 1561475166187
152, -37126.29, 0.00, 0.00, 0.00, 0.00, 0.00, 0.00, 0.00, 0.000, 0.000, 0.000, 11:06:06.187, 1561475166187
153, -36591.75, 0.00, 0.00, 0.00, 0.00, 0.00, 0.00, 0.00, 0.000, 0.000, 0.000, 11:06:06.187, 1561475166187
154, -36790.72, 0.00, 0.00, 0.00, 0.00, 0.00, 0.00, 0.00, 0.000, 0.000, 0.000, 11:06:06.188, 1561475166188
155, -37331.91, 0.00, 0.00, 0.00, 0.00, 0.00, 0.00, 0.00, 0.000, 0.000, 0.000, 11:06:06.188, 1561475166188
156, -37211.32, 0.00, 0.00, 0.00, 0.00, 0.00, 0.00, 0.00, 0.000, 0.000, 0.000, 11:06:06.188, 1561475166188
157, -36644.16, 0.00, 0.00, 0.00, 0.00, 0.00, 0.00, 0.00, 0.000, 0.000, 0.000, 11:06:06.188, 1561475166188
158, -36720.29, 0.00, 0.00, 0.00, 0.00, 0.00, 0.00, 0.00, 0.000, 0.000, 0.000, 11:06:06.188, 1561475166188
159, -37293.79, 0.00, 0.00, 0.00, 0.00, 0.00, 0.00, 0.00, 0.000, 0.000, 0.000, 11:06:06.188, 1561475166188
160, -37296.41, 0.00, 0.00, 0.00, 0.00, 0.00, 0.00, 0.00, 0.000, 0.000, 0.000, 11:06:06.188, 1561475166188
161, -36714.86, 0.00, 0.00, 0.00, 0.00, 0.00, 0.00, 0.00, 0.084, -0.048, 1.022, 11:06:06.188, 1561475166188
162, -36606.43, 0.00, 0.00, 0.00, 0.00, 0.00, 0.00, 0.00, 0.000, 0.000, 0.000, 11:06:06.189, 1561475166189
163, -37165.96, 0.00, 0.00, 0.00, 0.00, 0.00, 0.00, 0.00, 0.000, 0.000, 0.000, 11:06:06.189, 1561475166189
164, -37340.64, 0.00, 0.00, 0.00, 0.00, 0.00, 0.00, 0.00, 0.000, 0.000, 0.000, 11:06:06.189, 1561475166189
165, -36834.11, 0.00, 0.00, 0.00, 0.00, 0.00, 0.00, 0.00, 0.000, 0.000, 0.000, 11:06:06.189, 1561475166189
166, -36582.68, 0.00, 0.00, 0.00, 0.00, 0.00, 0.00, 0.00, 0.000, 0.000, 0.000, 11:06:06.189, 1561475166189
167, -37070.68, 0.00, 0.00, 0.00, 0.00, 0.00, 0.00, 0.00, 0.000, 0.000, 0.000, 11:06:06.189, 1561475166189
168, -37374.73, 0.00, 0.00, 0.00, 0.00, 0.00, 0.00, 0.00, 0.000, 0.000, 0.000, 11:06:06.189, 1561475166189
169, -36907.51, 0.00, 0.00, 0.00, 0.00, 0.00, 0.00, 0.00, 0.000, 0.000, 0.000, 11:06:06.189, 1561475166189
170, -36558.27, 0.00, 0.00, 0.00, 0.00, 0.00, 0.00, 0.00, 0.000, 0.000, 0.000, 11:06:06.189, 1561475166189
171, -36985.92, 0.00, 0.00, 0.00, 0.00, 0.00, 0.00, 0.00, 0.086, -0.044, 1.028, 11:06:06.189, 1561475166189
172, -37401.04, 0.00, 0.00, 0.00, 0.00, 0.00, 0.00, 0.00, 0.000, 0.000, 0.000, 11:06:06.189, 1561475166189
173, -37018.42, 0.00, 0.00, 0.00, 0.00, 0.00, 0.00, 0.00, 0.000, 0.000, 0.000, 11:06:06.189, 1561475166189
174, -36557.33, 0.00, 0.00, 0.00, 0.00, 0.00, 0.00, 0.00, 0.000, 0.000, 0.000, 11:06:06.189, 1561475166189
175, -36880.36, 0.00, 0.00, 0.00, 0.00, 0.00, 0.00, 0.00, 0.000, 0.000, 0.000, 11:06:06.189, 1561475166189
176, -37369.50, 0.00, 0.00, 0.00, 0.00, 0.00, 0.00, 0.00, 0.000, 0.000, 0.000, 11:06:06.189, 1561475166189
177, -37124.70, 0.00, 0.00, 0.00, 0.00, 0.00, 0.00, 0.00, 0.000, 0.000, 0.000, 11:06:06.189, 1561475166189
178, -36620.58, 0.00, 0.00, 0.00, 0.00, 0.00, 0.00, 0.00, 0.000, 0.000, 0.000, 11:06:06.189, 1561475166189
179, -36815.02, 0.00, 0.00, 0.00, 0.00, 0.00, 0.00, 0.00, 0.000, 0.000, 0.000, 11:06:06.189, 1561475166189
180, -37349.74, 0.00, 0.00, 0.00, 0.00, 0.00, 0.00, 0.00, 0.000, 0.000, 0.000, 11:06:06.190, 1561475166190
181, -37220.57, 0.00, 0.00, 0.00, 0.00, 0.00, 0.00, 0.00, 0.086, -0.048, 1.026, 11:06:06.190, 1561475166190
182, -36680.35, 0.00, 0.00, 0.00, 0.00, 0.00, 0.00, 0.00, 0.000, 0.000, 0.000, 11:06:06.190, 1561475166190
183, -36734.29, 0.00, 0.00, 0.00, 0.00, 0.00, 0.00, 0.00, 0.000, 0.000, 0.000, 11:06:06.190, 1561475166190
184, -37285.88, 0.00, 0.00, 0.00, 0.00, 0.00, 0.00, 0.00, 0.000, 0.000, 0.000, 11:06:06.190, 1561475166190
185, -37303.74, 0.00, 0.00, 0.00, 0.00, 0.00, 0.00, 0.00, 0.000, 0.000, 0.000, 11:06:06.190, 1561475166190
186, -36732.77, 0.00, 0.00, 0.00, 0.00, 0.00, 0.00, 0.00, 0.000, 0.000, 0.000, 11:06:06.190, 1561475166190
187, -36632.63, 0.00, 0.00, 0.00, 0.00, 0.00, 0.00, 0.00, 0.000, 0.000, 0.000, 11:06:06.190, 1561475166190
188, -37157.47, 0.00, 0.00, 0.00, 0.00, 0.00, 0.00, 0.00, 0.000, 0.000, 0.000, 11:06:06.190, 1561475166190
189, -37321.96, 0.00, 0.00, 0.00, 0.00, 0.00, 0.00, 0.00, 0.000, 0.000, 0.000, 11:06:06.190, 1561475166190
190, -36795.38, 0.00, 0.00, 0.00, 0.00, 0.00, 0.00, 0.00, 0.000, 0.000, 0.000, 11:06:06.190, 1561475166190
191, -36584.82, 0.00, 0.00, 0.00, 0.00, 0.00, 0.00, 0.00, 0.088, -0.048, 1.030, 11:06:06.190, 1561475166190
192, -37093.57, 0.00, 0.00, 0.00, 0.00, 0.00, 0.00, 0.00, 0.000, 0.000, 0.000, 11:06:06.190, 1561475166190
193, -37384.03, 0.00, 0.00, 0.00, 0.00, 0.00, 0.00, 0.00, 0.000, 0.000, 0.000, 11:06:06.190, 1561475166190
194, -36919.89, 0.00, 0.00, 0.00, 0.00, 0.00, 0.00, 0.00, 0.000, 0.000, 0.000, 11:06:06.190, 1561475166190
195, -36558.09, 0.00, 0.00, 0.00, 0.00, 0.00, 0.00, 0.00, 0.000, 0.000, 0.000, 11:06:06.190, 1561475166190
196, -36981.86, 0.00, 0.00, 0.00, 0.00, 0.00, 0.00, 0.00, 0.000, 0.000, 0.000, 11:06:06.190, 1561475166190
197, -37398.82, 0.00, 0.00, 0.00, 0.00, 0.00, 0.00, 0.00, 0.000, 0.000, 0.000, 11:06:06.190, 1561475166190
198, -37011.36, 0.00, 0.00, 0.00, 0.00, 0.00, 0.00, 0.00, 0.000, 0.000, 0.000, 11:06:06.190, 1561475166190
199, -36560.32, 0.00, 0.00, 0.00, 0.00, 0.00, 0.00, 0.00, 0.000, 0.000, 0.000, 11:06:06.190, 1561475166190
200, -36876.69, 0.00, 0.00, 0.00, 0.00, 0.00, 0.00, 0.00, 0.000, 0.000, 0.000, 11:06:06.190, 1561475166190
201, -37399.50, 0.00, 0.00, 0.00, 0.00, 0.00, 0.00, 0.00, 0.082, -0.044, 1.030, 11:06:06.191, 1561475166191
202, -37168.80, 0.00, 0.00, 0.00, 0.00, 0.00, 0.00, 0.00, 0.000, 0.000, 0.000, 11:06:06.191, 1561475166191
203, -36632.86, 0.00, 0.00, 0.00, 0.00, 0.00, 0.00, 0.00, 0.000, 0.000, 0.000, 11:06:06.191, 1561475166191
204, -36809.45, 0.00, 0.00, 0.00, 0.00, 0.00, 0.00, 0.00, 0.000, 0.000, 0.000, 11:06:06.191, 1561475166191
205, -37341.47, 0.00, 0.00, 0.00, 0.00, 0.00, 0.00, 0.00, 0.000, 0.000, 0.000, 11:06:06.191, 1561475166191
206, -37199.38, 0.00, 0.00, 0.00, 0.00, 0.00, 0.00, 0.00, 0.000, 0.000, 0.000, 11:06:06.191, 1561475166191
207, -36649.13, 0.00, 0.00, 0.00, 0.00, 0.00, 0.00, 0.00, 0.000, 0.000, 0.000, 11:06:06.191, 1561475166191
208, -36721.41, 0.00, 0.00, 0.00, 0.00, 0.00, 0.00, 0.00, 0.000, 0.000, 0.000, 11:06:06.191, 1561475166191
209, -37295.05, 0.00, 0.00, 0.00, 0.00, 0.00, 0.00, 0.00, 0.000, 0.000, 0.000, 11:06:06.191, 1561475166191
210, -37306.11, 0.00, 0.00, 0.00, 0.00, 0.00, 0.00, 0.00, 0.000, 0.000, 0.000, 11:06:06.191, 1561475166191
211, -36744.72, 0.00, 0.00, 0.00, 0.00, 0.00, 0.00, 0.00, 0.000, 0.000, 0.000, 11:06:06.191, 1561475166191
212, -36655.72, 0.00, 0.00, 0.00, 0.00, 0.00, 0.00, 0.00, 0.084, -0.048, 1.030, 11:06:06.191, 1561475166191
213, -37207.41, 0.00, 0.00, 0.00, 0.00, 0.00, 0.00, 0.00, 0.000, 0.000, 0.000, 11:06:06.191, 1561475166191
214, -37349.45, 0.00, 0.00, 0.00, 0.00, 0.00, 0.00, 0.00, 0.000, 0.000, 0.000, 11:06:06.191, 1561475166191
215, -36819.85, 0.00, 0.00, 0.00, 0.00, 0.00, 0.00, 0.00, 0.000, 0.000, 0.000, 11:06:06.191, 1561475166191
216, -36589.80, 0.00, 0.00, 0.00, 0.00, 0.00, 0.00, 0.00, 0.000, 0.000, 0.000, 11:06:06.191, 1561475166191
217, -37078.41, 0.00, 0.00, 0.00, 0.00, 0.00, 0.00, 0.00, 0.000, 0.000, 0.000, 11:06:06.191, 1561475166191
218, -37371.07, 0.00, 0.00, 0.00, 0.00, 0.00, 0.00, 0.00, 0.000, 0.000, 0.000, 11:06:06.191, 1561475166191
219, -36908.45, 0.00, 0.00, 0.00, 0.00, 0.00, 0.00, 0.00, 0.000, 0.000, 0.000, 11:06:06.191, 1561475166191
220, -36563.56, 0.00, 0.00, 0.00, 0.00, 0.00, 0.00, 0.00, 0.000, 0.000, 0.000, 11:06:06.191, 1561475166191
221, -37007.00, 0.00, 0.00, 0.00, 0.00, 0.00, 0.00, 0.00, 0.000, 0.000, 0.000, 11:06:06.191, 1561475166191
222, -37410.16, 0.00, 0.00, 0.00, 0.00, 0.00, 0.00, 0.00, 0.084, -0.048, 1.032, 11:06:06.191, 1561475166191
223, -37027.32, 0.00, 0.00, 0.00, 0.00, 0.00, 0.00, 0.00, 0.000, 0.000, 0.000, 11:06:06.192, 1561475166192
224, -36582.72, 0.00, 0.00, 0.00, 0.00, 0.00, 0.00, 0.00, 0.000, 0.000, 0.000, 11:06:06.192, 1561475166192
225, -36921.37, 0.00, 0.00, 0.00, 0.00, 0.00, 0.00, 0.00, 0.000, 0.000, 0.000, 11:06:06.192, 1561475166192
226, -37402.98, 0.00, 0.00, 0.00, 0.00, 0.00, 0.00, 0.00, 0.000, 0.000, 0.000, 11:06:06.192, 1561475166192
227, -37113.77, 0.00, 0.00, 0.00, 0.00, 0.00, 0.00, 0.00, 0.000, 0.000, 0.000, 11:06:06.192, 1561475166192
228, -36588.13, 0.00, 0.00, 0.00, 0.00, 0.00, 0.00, 0.00, 0.000, 0.000, 0.000, 11:06:06.192, 1561475166192
229, -36804.07, 0.00, 0.00, 0.00, 0.00, 0.00, 0.00, 0.00, 0.000, 0.000, 0.000, 11:06:06.192, 1561475166192
230, -37345.98, 0.00, 0.00, 0.00, 0.00, 0.00, 0.00, 0.00, 0.000, 0.000, 0.000, 11:06:06.192, 1561475166192
231, -37202.33, 0.00, 0.00, 0.00, 0.00, 0.00, 0.00, 0.00, 0.000, 0.000, 0.000, 11:06:06.192, 1561475166192
232, -36657.39, 0.00, 0.00, 0.00, 0.00, 0.00, 0.00, 0.00, 0.082, -0.048, 1.030, 11:06:06.192, 1561475166192
233, -36737.21, 0.00, 0.00, 0.00, 0.00, 0.00, 0.00, 0.00, 0.000, 0.000, 0.000, 11:06:06.192, 1561475166192
234, -37285.30, 0.00, 0.00, 0.00, 0.00, 0.00, 0.00, 0.00, 0.000, 0.000, 0.000, 11:06:06.192, 1561475166192
235, -37254.81, 0.00, 0.00, 0.00, 0.00, 0.00, 0.00, 0.00, 0.000, 0.000, 0.000, 11:06:06.192, 1561475166192
236, -36674.79, 0.00, 0.00, 0.00, 0.00, 0.00, 0.00, 0.00, 0.000, 0.000, 0.000, 11:06:06.192, 1561475166192
237, -36619.51, 0.00, 0.00, 0.00, 0.00, 0.00, 0.00, 0.00, 0.000, 0.000, 0.000, 11:06:06.192, 1561475166192
238, -37206.58, 0.00, 0.00, 0.00, 0.00, 0.00, 0.00, 0.00, 0.000, 0.000, 0.000, 11:06:06.192, 1561475166192
239, -37373.64, 0.00, 0.00, 0.00, 0.00, 0.00, 0.00, 0.00, 0.000, 0.000, 0.000, 11:06:06.192, 1561475166192
240, -36837.44, 0.00, 0.00, 0.00, 0.00, 0.00, 0.00, 0.00, 0.000, 0.000, 0.000, 11:06:06.192, 1561475166192
241, -36605.50, 0.00, 0.00, 0.00, 0.00, 0.00, 0.00, 0.00, 0.000, 0.000, 0.000, 11:06:06.664, 1561475166664
242, -37109.08, 0.00, 0.00, 0.00, 0.00, 0.00, 0.00, 0.00, 0.084, -0.044, 1.028, 11:06:06.664, 1561475166664
243, -37392.50, 0.00, 0.00, 0.00, 0.00, 0.00, 0.00, 0.00, 0.000, 0.000, 0.000, 11:06:06.664, 1561475166664
244, -36901.86, 0.00, 0.00, 0.00, 0.00, 0.00, 0.00, 0.00, 0.000, 0.000, 0.000, 11:06:06.664, 1561475166664
245, -36545.79, 0.00, 0.00, 0.00, 0.00, 0.00, 0.00, 0.00, 0.000, 0.000, 0.000, 11:06:06.664, 1561475166664
246, -36980.56, 0.00, 0.00, 0.00, 0.00, 0.00, 0.00, 0.00, 0.000, 0.000, 0.000, 11:06:06.664, 1561475166664
247, -37397.51, 0.00, 0.00, 0.00, 0.00, 0.00, 0.00, 0.00, 0.000, 0.000, 0.000, 11:06:06.664, 1561475166664
248, -37010.11, 0.00, 0.00, 0.00, 0.00, 0.00, 0.00, 0.00, 0.000, 0.000, 0.000, 11:06:06.664, 1561475166664
249, -36544.59, 0.00, 0.00, 0.00, 0.00, 0.00, 0.00, 0.00, 0.000, 0.000, 0.000, 11:06:06.664, 1561475166664
250, -36872.64, 0.00, 0.00, 0.00, 0.00, 0.00, 0.00, 0.00, 0.000, 0.000, 0.000, 11:06:06.664, 1561475166664
251, -37396.37, 0.00, 0.00, 0.00, 0.00, 0.00, 0.00, 0.00, 0.000, 0.000, 0.000, 11:06:06.664, 1561475166664
252, -37132.86, 0.00, 0.00, 0.00, 0.00, 0.00, 0.00, 0.00, 0.088, -0.046, 1.032, 11:06:06.664, 1561475166664
253, -36609.23, 0.00, 0.00, 0.00, 0.00, 0.00, 0.00, 0.00, 0.000, 0.000, 0.000, 11:06:06.664, 1561475166664
254, -36818.44, 0.00, 0.00, 0.00, 0.00, 0.00, 0.00, 0.00, 0.000, 0.000, 0.000, 11:06:06.664, 1561475166664
255, -37359.44, 0.00, 0.00, 0.00, 0.00, 0.00, 0.00, 0.00, 0.000, 0.000, 0.000, 11:06:06.664, 1561475166664
0, -37225.96, 0.00, 0.00, 0.00, 0.00, 0.00, 0.00, 0.00, 0.000, 0.000, 0.000, 11:06:06.664, 1561475166664
1, -36672.44, 0.00, 0.00, 0.00, 0.00, 0.00, 0.00, 0.00, 0.000, 0.000, 0.000, 11:06:06.664, 1561475166664
2, -36738.27, 0.00, 0.00, 0.00, 0.00, 0.00, 0.00, 0.00, 0.000, 0.000, 0.000, 11:06:06.664, 1561475166664
3, -37300.57, 0.00, 0.00, 0.00, 0.00, 0.00, 0.00, 0.00, 0.000, 0.000, 0.000, 11:06:06.664, 1561475166664
4, -37290.89, 0.00, 0.00, 0.00, 0.00, 0.00, 0.00, 0.00, 0.000, 0.000, 0.000, 11:06:06.664, 1561475166664
5, -36714.80, 0.00, 0.00, 0.00, 0.00, 0.00, 0.00, 0.00, 0.000, 0.000, 0.000, 11:06:06.665, 1561475166665
6, -36643.83, 0.00, 0.00, 0.00, 0.00, 0.00, 0.00, 0.00, 0.000, 0.000, 0.000, 11:06:06.665, 1561475166665
7, -37206.80, 0.00, 0.00, 0.00, 0.00, 0.00, 0.00, 0.00, 0.092, -0.048, 1.032, 11:06:06.665, 1561475166665
8, -37332.84, 0.00, 0.00, 0.00, 0.00, 0.00, 0.00, 0.00, 0.000, 0.000, 0.000, 11:06:06.665, 1561475166665
9, -36803.64, 0.00, 0.00, 0.00, 0.00, 0.00, 0.00, 0.00, 0.000, 0.000, 0.000, 11:06:06.665, 1561475166665
10, -36588.55, 0.00, 0.00, 0.00, 0.00, 0.00, 0.00, 0.00, 0.000, 0.000, 0.000, 11:06:06.665, 1561475166665
11, -37111.36, 0.00, 0.00, 0.00, 0.00, 0.00, 0.00, 0.00, 0.000, 0.000, 0.000, 11:06:06.665, 1561475166665
12, -37415.84, 0.00, 0.00, 0.00, 0.00, 0.00, 0.00, 0.00, 0.000, 0.000, 0.000, 11:06:06.665, 1561475166665
13, -36928.39, 0.00, 0.00, 0.00, 0.00, 0.00, 0.00, 0.00, 0.000, 0.000, 0.000, 11:06:06.665, 1561475166665
14, -36563.07, 0.00, 0.00, 0.00, 0.00, 0.00, 0.00, 0.00, 0.000, 0.000, 0.000, 11:06:06.665, 1561475166665
15, -36990.73, 0.00, 0.00, 0.00, 0.00, 0.00, 0.00, 0.00, 0.000, 0.000, 0.000, 11:06:06.665, 1561475166665
16, -37404.86, 0.00, 0.00, 0.00, 0.00, 0.00, 0.00, 0.00, 0.000, 0.000, 0.000, 11:06:06.665, 1561475166665
17, -37035.43, 0.00, 0.00, 0.00, 0.00, 0.00, 0.00, 0.00, 0.088, -0.048, 1.030, 11:06:06.665, 1561475166665
18, -36574.29, 0.00, 0.00, 0.00, 0.00, 0.00, 0.00, 0.00, 0.000, 0.000, 0.000, 11:06:06.666, 1561475166666
19, -36913.28, 0.00, 0.00, 0.00, 0.00, 0.00, 0.00, 0.00, 0.000, 0.000, 0.000, 11:06:06.666, 1561475166666
20, -37400.48, 0.00, 0.00, 0.00, 0.00, 0.00, 0.00, 0.00, 0.000, 0.000, 0.000, 11:06:06.666, 1561475166666
21, -37129.69, 0.00, 0.00, 0.00, 0.00, 0.00, 0.00, 0.00, 0.000, 0.000, 0.000, 11:06:06.666, 1561475166666
22, -36601.14, 0.00, 0.00, 0.00, 0.00, 0.00, 0.00, 0.00, 0.000, 0.000, 0.000, 11:06:06.666, 1561475166666
23, -36809.86, 0.00, 0.00, 0.00, 0.00, 0.00, 0.00, 0.00, 0.000, 0.000, 0.000, 11:06:06.666, 1561475166666
24, -37368.02, 0.00, 0.00, 0.00, 0.00, 0.00, 0.00, 0.00, 0.000, 0.000, 0.000, 11:06:06.666, 1561475166666
25, -37233.45, 0.00, 0.00, 0.00, 0.00, 0.00, 0.00, 0.00, 0.000, 0.000, 0.000, 11:06:06.666, 1561475166666
26, -36658.87, 0.00, 0.00, 0.00, 0.00, 0.00, 0.00, 0.00, 0.000, 0.000, 0.000, 11:06:06.666, 1561475166666
27, -36727.71, 0.00, 0.00, 0.00, 0.00, 0.00, 0.00, 0.00, 0.084, -0.048, 1.030, 11:06:06.666, 1561475166666
28, -37286.39, 0.00, 0.00, 0.00, 0.00, 0.00, 0.00, 0.00, 0.000, 0.000, 0.000, 11:06:06.666, 1561475166666
29, -37292.48, 0.00, 0.00, 0.00, 0.00, 0.00, 0.00, 0.00, 0.000, 0.000, 0.000, 11:06:06.666, 1561475166666
30, -36726.17, 0.00, 0.00, 0.00, 0.00, 0.00, 0.00, 0.00, 0.000, 0.000, 0.000, 11:06:06.666, 1561475166666
31, -36666.61, 0.00, 0.00, 0.00, 0.00, 0.00, 0.00, 0.00, 0.000, 0.000, 0.000, 11:06:06.666, 1561475166666
32, -37215.25, 0.00, 0.00, 0.00, 0.00, 0.00, 0.00, 0.00, 0.000, 0.000, 0.000, 11:06:06.666, 1561475166666
33, -37356.52, 0.00, 0.00, 0.00, 0.00, 0.00, 0.00, 0.00, 0.000, 0.000, 0.000, 11:06:06.666, 1561475166666
34, -36815.54, 0.00, 0.00, 0.00, 0.00, 0.00, 0.00, 0.00, 0.000, 0.000, 0.000, 11:06:06.666, 1561475166666
35, -36596.75, 0.00, 0.00, 0.00, 0.00, 0.00, 0.00, 0.00, 0.000, 0.000, 0.000, 11:06:06.666, 1561475166666
36, -37100.54, 0.00, 0.00, 0.00, 0.00, 0.00, 0.00, 0.00, 0.000, 0.000, 0.000, 11:06:06.666, 1561475166666
37, -37391.32, 0.00, 0.00, 0.00, 0.00, 0.00, 0.00, 0.00, 0.082, -0.050, 1.030, 11:06:06.666, 1561475166666
38, -36918.78, 0.00, 0.00, 0.00, 0.00, 0.00, 0.00, 0.00, 0.000, 0.000, 0.000, 11:06:06.666, 1561475166666
39, -36579.99, 0.00, 0.00, 0.00, 0.00, 0.00, 0.00, 0.00, 0.000, 0.000, 0.000, 11:06:06.666, 1561475166666
40, -37034.52, 0.00, 0.00, 0.00, 0.00, 0.00, 0.00, 0.00, 0.000, 0.000, 0.000, 11:06:06.666, 1561475166666
41, -37417.58, 0.00, 0.00, 0.00, 0.00, 0.00, 0.00, 0.00, 0.000, 0.000, 0.000, 11:06:06.666, 1561475166666
42, -37022.07, 0.00, 0.00, 0.00, 0.00, 0.00, 0.00, 0.00, 0.000, 0.000, 0.000, 11:06:06.666, 1561475166666
43, -36578.72, 0.00, 0.00, 0.00, 0.00, 0.00, 0.00, 0.00, 0.000, 0.000, 0.000, 11:06:06.667, 1561475166667
44, -36927.90, 0.00, 0.00, 0.00, 0.00, 0.00, 0.00, 0.00, 0.000, 0.000, 0.000, 11:06:06.667, 1561475166667
45, -37394.94, 0.00, 0.00, 0.00, 0.00, 0.00, 0.00, 0.00, 0.000, 0.000, 0.000, 11:06:06.667, 1561475166667
46, -37108.84, 0.00, 0.00, 0.00, 0.00, 0.00, 0.00, 0.00, 0.000, 0.000, 0.000, 11:06:06.667, 1561475166667
47, -36605.59, 0.00, 0.00, 0.00, 0.00, 0.00, 0.00, 0.00, 0.084, -0.050, 1.034, 11:06:06.667, 1561475166667
48, -36799.51, 0.00, 0.00, 0.00, 0.00, 0.00, 0.00, 0.00, 0.000, 0.000, 0.000, 11:06:06.667, 1561475166667
49, -37324.24, 0.00, 0.00, 0.00, 0.00, 0.00, 0.00, 0.00, 0.000, 0.000, 0.000, 11:06:06.667, 1561475166667
50, -37187.54, 0.00, 0.00, 0.00, 0.00, 0.00, 0.00, 0.00, 0.000, 0.000, 0.000, 11:06:06.667, 1561475166667
51, -36653.98, 0.00, 0.00, 0.00, 0.00, 0.00, 0.00, 0.00, 0.000, 0.000, 0.000, 11:06:06.667, 1561475166667
52, -36764.35, 0.00, 0.00, 0.00, 0.00, 0.00, 0.00, 0.00, 0.000, 0.000, 0.000, 11:06:06.667, 1561475166667
53, -37329.54, 0.00, 0.00, 0.00, 0.00, 0.00, 0.00, 0.00, 0.000, 0.000, 0.000, 11:06:06.667, 1561475166667
54, -37320.06, 0.00, 0.00, 0.00, 0.00, 0.00, 0.00, 0.00, 0.000, 0.000, 0.000, 11:06:06.667, 1561475166667
55, -36766.83, 0.00, 0.00, 0.00, 0.00, 0.00, 0.00, 0.00, 0.000, 0.000, 0.000, 11:06:06.667, 1561475166667
56, -36681.60, 0.00, 0.00, 0.00, 0.00, 0.00, 0.00, 0.00, 0.000, 0.000, 0.000, 11:06:06.667, 1561475166667
57, -37211.00, 0.00, 0.00, 0.00, 0.00, 0.00, 0.00, 0.00, 0.088, -0.048, 1.028, 11:06:06.667, 1561475166667
58, -37331.37, 0.00, 0.00, 0.00, 0.00, 0.00, 0.00, 0.00, 0.000, 0.000, 0.000, 11:06:06.667, 1561475166667
59, -36801.36, 0.00, 0.00, 0.00, 0.00, 0.00, 0.00, 0.00, 0.000, 0.000, 0.000, 11:06:06.667, 1561475166667
60, -36582.12, 0.00, 0.00, 0.00, 0.00, 0.00, 0.00, 0.00, 0.000, 0.000, 0.000, 11:06:06.667, 1561475166667
61, -37099.20, 0.00, 0.00, 0.00, 0.00, 0.00, 0.00, 0.00, 0.000, 0.000, 0.000, 11:06:06.667, 1561475166667
62, -37409.20, 0.00, 0.00, 0.00, 0.00, 0.00, 0.00, 0.00, 0.000, 0.000, 0.000, 11:06:06.667, 1561475166667
63, -36932.08, 0.00, 0.00, 0.00, 0.00, 0.00, 0.00, 0.00, 0.000, 0.000, 0.000, 11:06:06.667, 1561475166667
64, -36577.82, 0.00, 0.00, 0.00, 0.00, 0.00, 0.00, 0.00, 0.000, 0.000, 0.000, 11:06:06.667, 1561475166667
65, -36998.08, 0.00, 0.00, 0.00, 0.00, 0.00, 0.00, 0.00, 0.000, 0.000, 0.000, 11:06:06.667, 1561475166667
66, -37408.95, 0.00, 0.00, 0.00, 0.00, 0.00, 0.00, 0.00, 0.000, 0.000, 0.000, 11:06:06.667, 1561475166667
67, -37050.65, 0.00, 0.00, 0.00, 0.00, 0.00, 0.00, 0.00, 0.000, 0.000, 0.000, 11:06:06.667, 1561475166667
68, -36599.66, 0.00, 0.00, 0.00, 0.00, 0.00, 0.00, 0.00, 0.088, -0.056, 1.028, 11:06:06.668, 1561475166668
69, -36922.24, 0.00, 0.00, 0.00, 0.00, 0.00, 0.00, 0.00, 0.000, 0.000, 0.000, 11:06:06.668, 1561475166668
70, -37400.43, 0.00, 0.00, 0.00, 0.00, 0.00, 0.00, 0.00, 0.000, 0.000, 0.000, 11:06:06.668, 1561475166668
71, -37110.85, 0.00, 0.00, 0.00, 0.00, 0.00, 0.00, 0.00, 0.000, 0.000, 0.000, 11:06:06.668, 1561475166668
72, -36597.05, 0.00, 0.00, 0.00, 0.00, 0.00, 0.00, 0.00, 0.000, 0.000, 0.000, 11:06:06.668, 1561475166668
73, -36809.68, 0.00, 0.00, 0.00, 0.00, 0.00, 0.00, 0.00, 0.000, 0.000, 0.000, 11:06:06.668, 1561475166668
74, -37367.96, 0.00, 0.00, 0.00, 0.00, 0.00, 0.00, 0.00, 0.000, 0.000, 0.000, 11:06:06.668, 1561475166668
75, -37220.37, 0.00, 0.00, 0.00, 0.00, 0.00, 0.00, 0.00, 0.000, 0.000, 0.000, 11:06:06.668, 1561475166668
76, -36650.71, 0.00, 0.00, 0.00, 0.00, 0.00, 0.00, 0.00, 0.000, 0.000, 0.000, 11:06:06.668, 1561475166668
77, -36728.47, 0.00, 0.00, 0.00, 0.00, 0.00, 0.00, 0.00, 0.000, 0.000, 0.000, 11:06:06.668, 1561475166668
78, -37310.87, 0.00, 0.00, 0.00, 0.00, 0.00, 0.00, 0.00, 0.086, -0.058, 1.028, 11:06:06.668, 1561475166668
79, -37305.35, 0.00, 0.00, 0.00, 0.00, 0.00, 0.00, 0.00, 0.000, 0.000, 0.000, 11:06:06.668, 1561475166668
80, -36747.32, 0.00, 0.00, 0.00, 0.00, 0.00, 0.00, 0.00, 0.000, 0.000, 0.000, 11:06:06.668, 1561475166668
81, -36651.00, 0.00, 0.00, 0.00, 0.00, 0.00, 0.00, 0.00, 0.000, 0.000, 0.000, 11:06:06.668, 1561475166668
82, -37189.55, 0.00, 0.00, 0.00, 0.00, 0.00, 0.00, 0.00, 0.000, 0.000, 0.000, 11:06:06.668, 1561475166668
83, -37360.70, 0.00, 0.00, 0.00, 0.00, 0.00, 0.00, 0.00, 0.000, 0.000, 0.000, 11:06:06.668, 1561475166668
84, -36832.75, 0.00, 0.00, 0.00, 0.00, 0.00, 0.00, 0.00, 0.000, 0.000, 0.000, 11:06:06.668, 1561475166668
85, -36622.37, 0.00, 0.00, 0.00, 0.00, 0.00, 0.00, 0.00, 0.000, 0.000, 0.000, 11:06:06.668, 1561475166668
86, -37131.77, 0.00, 0.00, 0.00, 0.00, 0.00, 0.00, 0.00, 0.000, 0.000, 0.000, 11:06:06.668, 1561475166668
87, -37416.35, 0.00, 0.00, 0.00, 0.00, 0.00, 0.00, 0.00, 0.000, 0.000, 0.000, 11:06:06.668, 1561475166668
88, -36928.25, 0.00, 0.00, 0.00, 0.00, 0.00, 0.00, 0.00, 0.086, -0.056, 1.036, 11:06:06.668, 1561475166668
89, -36588.66, 0.00, 0.00, 0.00, 0.00, 0.00, 0.00, 0.00, 0.000, 0.000, 0.000, 11:06:06.668, 1561475166668
90, -37049.73, 0.00, 0.00, 0.00, 0.00, 0.00, 0.00, 0.00, 0.000, 0.000, 0.000, 11:06:06.668, 1561475166668
91, -37440.55, 0.00, 0.00, 0.00, 0.00, 0.00, 0.00, 0.00, 0.000, 0.000, 0.000, 11:06:06.668, 1561475166668
92, -37044.04, 0.00, 0.00, 0.00, 0.00, 0.00, 0.00, 0.00, 0.000, 0.000, 0.000, 11:06:06.669, 1561475166669
93, -36575.57, 0.00, 0.00, 0.00, 0.00, 0.00, 0.00, 0.00, 0.000, 0.000, 0.000, 11:06:06.669, 1561475166669
94, -36885.92, 0.00, 0.00, 0.00, 0.00, 0.00, 0.00, 0.00, 0.000, 0.000, 0.000, 11:06:06.669, 1561475166669
95, -37374.37, 0.00, 0.00, 0.00, 0.00, 0.00, 0.00, 0.00, 0.000, 0.000, 0.000, 11:06:06.669, 1561475166669
96, -37124.66, 0.00, 0.00, 0.00, 0.00, 0.00, 0.00, 0.00, 0.000, 0.000, 0.000, 11:06:06.669, 1561475166669
97, -36594.99, 0.00, 0.00, 0.00, 0.00, 0.00, 0.00, 0.00, 0.000, 0.000, 0.000, 11:06:06.669, 1561475166669
98, -36825.17, 0.00, 0.00, 0.00, 0.00, 0.00, 0.00, 0.00, 0.090, -0.056, 1.028, 11:06:06.669, 1561475166669
99, -37390.87, 0.00, 0.00, 0.00, 0.00, 0.00, 0.00, 0.00, 0.000, 0.000, 0.000, 11:06:06.669, 1561475166669
100, -37235.95, 0.00, 0.00, 0.00, 0.00, 0.00, 0.00, 0.00, 0.000, 0.000, 0.000, 11:06:06.670, 1561475166670
101, -36678.41, 0.00, 0.00, 0.00, 0.00, 0.00, 0.00, 0.00, 0.000, 0.000, 0.000, 11:06:06.670, 1561475166670
102, -36749.48, 0.00, 0.00, 0.00, 0.00, 0.00, 0.00, 0.00, 0.000, 0.000, 0.000, 11:06:06.670, 1561475166670
103, -37311.63, 0.00, 0.00, 0.00, 0.00, 0.00, 0.00, 0.00, 0.000, 0.000, 0.000, 11:06:06.670, 1561475166670
104, -37283.87, 0.00, 0.00, 0.00, 0.00, 0.00, 0.00, 0.00, 0.000, 0.000, 0.000, 11:06:06.670, 1561475166670
105, -36708.43, 0.00, 0.00, 0.00, 0.00, 0.00, 0.00, 0.00, 0.000, 0.000, 0.000, 11:06:07.144, 1561475167144
106, -36673.42, 0.00, 0.00, 0.00, 0.00, 0.00, 0.00, 0.00, 0.000, 0.000, 0.000, 11:06:07.144, 1561475167144
107, -37232.17, 0.00, 0.00, 0.00, 0.00, 0.00, 0.00, 0.00, 0.000, 0.000, 0.000, 11:06:07.144, 1561475167144
108, -37366.06, 0.00, 0.00, 0.00, 0.00, 0.00, 0.00, 0.00, 0.092, -0.054, 1.030, 11:06:07.144, 1561475167144
109, -36850.14, 0.00, 0.00, 0.00, 0.00, 0.00, 0.00, 0.00, 0.000, 0.000, 0.000, 11:06:07.144, 1561475167144
110, -36644.99, 0.00, 0.00, 0.00, 0.00, 0.00, 0.00, 0.00, 0.000, 0.000, 0.000, 11:06:07.144, 1561475167144
111, -37144.82, 0.00, 0.00, 0.00, 0.00, 0.00, 0.00, 0.00, 0.000, 0.000, 0.000, 11:06:07.145, 1561475167145
112, -37404.82, 0.00, 0.00, 0.00, 0.00, 0.00, 0.00, 0.00, 0.000, 0.000, 0.000, 11:06:07.145, 1561475167145
113, -36930.33, 0.00, 0.00, 0.00, 0.00, 0.00, 0.00, 0.00, 0.000, 0.000, 0.000, 11:06:07.145, 1561475167145
114, -36615.40, 0.00, 0.00, 0.00, 0.00, 0.00, 0.00, 0.00, 0.000, 0.000, 0.000, 11:06:07.145, 1561475167145
115, -37047.59, 0.00, 0.00, 0.00, 0.00, 0.00, 0.00, 0.00, 0.000, 0.000, 0.000, 11:06:07.145, 1561475167145
116, -37415.95, 0.00, 0.00, 0.00, 0.00, 0.00, 0.00, 0.00, 0.000, 0.000, 0.000, 11:06:07.145, 1561475167145
117, -37014.98, 0.00, 0.00, 0.00, 0.00, 0.00, 0.00, 0.00, 0.000, 0.000, 0.000, 11:06:07.146, 1561475167146
118, -36569.51, 0.00, 0.00, 0.00, 0.00, 0.00, 0.00, 0.00, 0.000, 0.000, 0.000, 11:06:07.146, 1561475167146
119, -36928.81, 0.00, 0.00, 0.00, 0.00, 0.00, 0.00, 0.00, 0.088, -0.052, 1.032, 11:06:07.146, 1561475167146
120, -37431.21, 0.00, 0.00, 0.00, 0.00, 0.00, 0.00, 0.00, 0.000, 0.000, 0.000, 11:06:07.146, 1561475167146
121, -37147.08, 0.00, 0.00, 0.00, 0.00, 0.00, 0.00, 0.00, 0.000, 0.000, 0.000, 11:06:07.146, 1561475167146
122, -36599.21, 0.00, 0.00, 0.00, 0.00, 0.00, 0.00, 0.00, 0.000, 0.000, 0.000, 11:06:07.146, 1561475167146
123, -36794.73, 0.00, 0.00, 0.00, 0.00, 0.00, 0.00, 0.00, 0.000, 0.000, 0.000, 11:06:07.146, 1561475167146
124, -37357.63, 0.00, 0.00, 0.00, 0.00, 0.00, 0.00, 0.00, 0.000, 0.000, 0.000, 11:06:07.146, 1561475167146
125, -37249.27, 0.00, 0.00, 0.00, 0.00, 0.00, 0.00, 0.00, 0.000, 0.000, 0.000, 11:06:07.146, 1561475167146
126, -36675.95, 0.00, 0.00, 0.00, 0.00, 0.00, 0.00, 0.00, 0.000, 0.000, 0.000, 11:06:07.146, 1561475167146
127, -36729.05, 0.00, 0.00, 0.00, 0.00, 0.00, 0.00, 0.00, 0.000, 0.000, 0.000, 11:06:07.146, 1561475167146
128, -37303.54, 0.00, 0.00, 0.00, 0.00, 0.00, 0.00, 0.00, 0.000, 0.000, 0.000, 11:06:07.146, 1561475167146
129, -37298.78, 0.00, 0.00, 0.00, 0.00, 0.00, 0.00, 0.00, 0.088, -0.054, 1.028, 11:06:07.146, 1561475167146
130, -36744.68, 0.00, 0.00, 0.00, 0.00, 0.00, 0.00, 0.00, 0.000, 0.000, 0.000, 11:06:07.147, 1561475167147
131, -36675.48, 0.00, 0.00, 0.00, 0.00, 0.00, 0.00, 0.00, 0.000, 0.000, 0.000, 11:06:07.147, 1561475167147
132, -37233.07, 0.00, 0.00, 0.00, 0.00, 0.00, 0.00, 0.00, 0.000, 0.000, 0.000, 11:06:07.147, 1561475167147
133, -37349.45, 0.00, 0.00, 0.00, 0.00, 0.00, 0.00, 0.00, 0.000, 0.000, 0.000, 11:06:07.147, 1561475167147
134, -36825.08, 0.00, 0.00, 0.00, 0.00, 0.00, 0.00, 0.00, 0.000, 0.000, 0.000, 11:06:07.147, 1561475167147
135, -36616.94, 0.00, 0.00, 0.00, 0.00, 0.00, 0.00, 0.00, 0.000, 0.000, 0.000, 11:06:07.147, 1561475167147
136, -37104.77, 0.00, 0.00, 0.00, 0.00, 0.00, 0.00, 0.00, 0.000, 0.000, 0.000, 11:06:07.147, 1561475167147
137, -37373.14, 0.00, 0.00, 0.00, 0.00, 0.00, 0.00, 0.00, 0.000, 0.000, 0.000, 11:06:07.147, 1561475167147
138, -36893.77, 0.00, 0.00, 0.00, 0.00, 0.00, 0.00, 0.00, 0.000, 0.000, 0.000, 11:06:07.147, 1561475167147
139, -36591.86, 0.00, 0.00, 0.00, 0.00, 0.00, 0.00, 0.00, 0.090, -0.056, 1.030, 11:06:07.147, 1561475167147
140, -37060.60, 0.00, 0.00, 0.00, 0.00, 0.00, 0.00, 0.00, 0.000, 0.000, 0.000, 11:06:07.147, 1561475167147
141, -37464.72, 0.00, 0.00, 0.00, 0.00, 0.00, 0.00, 0.00, 0.000, 0.000, 0.000, 11:06:07.147, 1561475167147
142, -37044.86, 0.00, 0.00, 0.00, 0.00, 0.00, 0.00, 0.00, 0.000, 0.000, 0.000, 11:06:07.147, 1561475167147
143, -36565.48, 0.00, 0.00, 0.00, 0.00, 0.00, 0.00, 0.00, 0.000, 0.000, 0.000, 11:06:07.148, 1561475167148
144, -36907.33, 0.00, 0.00, 0.00, 0.00, 0.00, 0.00, 0.00, 0.000, 0.000, 0.000, 11:06:07.148, 1561475167148
145, -37420.20, 0.00, 0.00, 0.00, 0.00, 0.00, 0.00, 0.00, 0.000, 0.000, 0.000, 11:06:07.148, 1561475167148
146, -37139.32, 0.00, 0.00, 0.00, 0.00, 0.00, 0.00, 0.00, 0.000, 0.000, 0.000, 11:06:07.148, 1561475167148
147, -36602.75, 0.00, 0.00, 0.00, 0.00, 0.00, 0.00, 0.00, 0.000, 0.000, 0.000, 11:06:07.148, 1561475167148
148, -36817.97, 0.00, 0.00, 0.00, 0.00, 0.00, 0.00, 0.00, 0.000, 0.000, 0.000, 11:06:07.148, 1561475167148
149, -37364.76, 0.00, 0.00, 0.00, 0.00, 0.00, 0.00, 0.00, 0.086, -0.054, 1.034, 11:06:07.148, 1561475167148
150, -37203.20, 0.00, 0.00, 0.00, 0.00, 0.00, 0.00, 0.00, 0.000, 0.000, 0.000, 11:06:07.148, 1561475167148
151, -36659.52, 0.00, 0.00, 0.00, 0.00, 0.00, 0.00, 0.00, 0.000, 0.000, 0.000, 11:06:07.148, 1561475167148
152, -36778.74, 0.00, 0.00, 0.00, 0.00, 0.00, 0.00, 0.00, 0.000, 0.000, 0.000, 11:06:07.148, 1561475167148
153, -37344.94, 0.00, 0.00, 0.00, 0.00, 0.00, 0.00, 0.00, 0.000, 0.000, 0.000, 11:06:07.148, 1561475167148
154, -37324.51, 0.00, 0.00, 0.00, 0.00, 0.00, 0.00, 0.00, 0.000, 0.000, 0.000, 11:06:07.148, 1561475167148
155, -36754.78, 0.00, 0.00, 0.00, 0.00, 0.00, 0.00, 0.00, 0.000, 0.000, 0.000, 11:06:07.149, 1561475167149
156, -36684.33, 0.00, 0.00, 0.00, 0.00, 0.00, 0.00, 0.00, 0.000, 0.000, 0.000, 11:06:07.149, 1561475167149
157, -37224.97, 0.00, 0.00, 0.00, 0.00, 0.00, 0.00, 0.00, 0.000, 0.000, 0.000, 11:06:07.149, 1561475167149
158, -37365.88, 0.00, 0.00, 0.00, 0.00, 0.00, 0.00, 0.00, 0.000, 0.000, 0.000, 11:06:07.149, 1561475167149
159, -36815.71, 0.00, 0.00, 0.00, 0.00, 0.00, 0.00, 0.00, 0.092, -0.054, 1.030, 11:06:07.149, 1561475167149
160, -36620.56, 0.00, 0.00, 0.00, 0.00, 0.00, 0.00, 0.00, 0.000, 0.000, 0.000, 11:06:07.149, 1561475167149
161, -37125.51, 0.00, 0.00, 0.00, 0.00, 0.00, 0.00, 0.00, 0.000, 0.000, 0.000, 11:06:07.149, 1561475167149
162, -37382.78, 0.00, 0.00, 0.00, 0.00, 0.00, 0.00, 0.00, 0.000, 0.000, 0.000, 11:06:07.149, 1561475167149
163, -36909.57, 0.00, 0.00, 0.00, 0.00, 0.00, 0.00, 0.00, 0.000, 0.000, 0.000, 11:06:07.149, 1561475167149
164, -36597.52, 0.00, 0.00, 0.00, 0.00, 0.00, 0.00, 0.00, 0.000, 0.000, 0.000, 11:06:07.149, 1561475167149
165, -37063.57, 0.00, 0.00, 0.00, 0.00, 0.00, 0.00, 0.00, 0.000, 0.000, 0.000, 11:06:07.149, 1561475167149
166, -37476.61, 0.00, 0.00, 0.00, 0.00, 0.00, 0.00, 0.00, 0.000, 0.000, 0.000, 11:06:07.149, 1561475167149
167, -37085.95, 0.00, 0.00, 0.00, 0.00, 0.00, 0.00, 0.00, 0.000, 0.000, 0.000, 11:06:07.149, 1561475167149
168, -36617.12, 0.00, 0.00, 0.00, 0.00, 0.00, 0.00, 0.00, 0.000, 0.000, 0.000, 11:06:07.149, 1561475167149
169, -36948.37, 0.00, 0.00, 0.00, 0.00, 0.00, 0.00, 0.00, 0.090, -0.054, 1.028, 11:06:07.150, 1561475167150
170, -37408.30, 0.00, 0.00, 0.00, 0.00, 0.00, 0.00, 0.00, 0.000, 0.000, 0.000, 11:06:07.150, 1561475167150
171, -37123.95, 0.00, 0.00, 0.00, 0.00, 0.00, 0.00, 0.00, 0.000, 0.000, 0.000, 11:06:07.150, 1561475167150
172, -36612.85, 0.00, 0.00, 0.00, 0.00, 0.00, 0.00, 0.00, 0.000, 0.000, 0.000, 11:06:07.150, 1561475167150
173, -36837.37, 0.00, 0.00, 0.00, 0.00, 0.00, 0.00, 0.00, 0.000, 0.000, 0.000, 11:06:07.150, 1561475167150
174, -37419.99, 0.00, 0.00, 0.00, 0.00, 0.00, 0.00, 0.00, 0.000, 0.000, 0.000, 11:06:07.150, 1561475167150
175, -37286.82, 0.00, 0.00, 0.00, 0.00, 0.00, 0.00, 0.00, 0.000, 0.000, 0.000, 11:06:07.150, 1561475167150
176, -36708.63, 0.00, 0.00, 0.00, 0.00, 0.00, 0.00, 0.00, 0.000, 0.000, 0.000, 11:06:07.150, 1561475167150
177, -36772.93, 0.00, 0.00, 0.00, 0.00, 0.00, 0.00, 0.00, 0.000, 0.000, 0.000, 11:06:07.150, 1561475167150
178, -37326.70, 0.00, 0.00, 0.00, 0.00, 0.00, 0.00, 0.00, 0.000, 0.000, 0.000, 11:06:07.150, 1561475167150
179, -37310.22, 0.00, 0.00, 0.00, 0.00, 0.00, 0.00, 0.00, 0.000, 0.000, 0.000, 11:06:07.150, 1561475167150
180, -36754.18, 0.00, 0.00, 0.00, 0.00, 0.00, 0.00, 0.00, 0.086, -0.054, 1.026, 11:06:07.150, 1561475167150
181, -36699.60, 0.00, 0.00, 0.00, 0.00, 0.00, 0.00, 0.00, 0.000, 0.000, 0.000, 11:06:07.151, 1561475167151
182, -37260.71, 0.00, 0.00, 0.00, 0.00, 0.00, 0.00, 0.00, 0.000, 0.000, 0.000, 11:06:07.151, 1561475167151
183, -37394.04, 0.00, 0.00, 0.00, 0.00, 0.00, 0.00, 0.00, 0.000, 0.000, 0.000, 11:06:07.151, 1561475167151
184, -36854.20, 0.00, 0.00, 0.00, 0.00, 0.00, 0.00, 0.00, 0.000, 0.000, 0.000, 11:06:07.151, 1561475167151
185, -36629.39, 0.00, 0.00, 0.00, 0.00, 0.00, 0.00, 0.00, 0.000, 0.000, 0.000, 11:06:07.151, 1561475167151
186, -37146.99, 0.00, 0.00, 0.00, 0.00, 0.00, 0.00, 0.00, 0.000, 0.000, 0.000, 11:06:07.151, 1561475167151
187, -37422.43, 0.00, 0.00, 0.00, 0.00, 0.00, 0.00, 0.00, 0.000, 0.000, 0.000, 11:06:07.151, 1561475167151
188, -36925.91, 0.00, 0.00, 0.00, 0.00, 0.00, 0.00, 0.00, 0.000, 0.000, 0.000, 11:06:07.151, 1561475167151
189, -36590.83, 0.00, 0.00, 0.00, 0.00, 0.00, 0.00, 0.00, 0.000, 0.000, 0.000, 11:06:07.152, 1561475167152
190, -37036.32, 0.00, 0.00, 0.00, 0.00, 0.00, 0.00, 0.00, 0.090, -0.046, 1.032, 11:06:07.152, 1561475167152
191, -37432.00, 0.00, 0.00, 0.00, 0.00, 0.00, 0.00, 0.00, 0.000, 0.000, 0.000, 11:06:07.152, 1561475167152
192, -37040.91, 0.00, 0.00, 0.00, 0.00, 0.00, 0.00, 0.00, 0.000, 0.000, 0.000, 11:06:07.153, 1561475167153
193, -36586.54, 0.00, 0.00, 0.00, 0.00, 0.00, 0.00, 0.00, 0.000, 0.000, 0.000, 11:06:07.153, 1561475167153
194, -36915.11, 0.00, 0.00, 0.00, 0.00, 0.00, 0.00, 0.00, 0.000, 0.000, 0.000, 11:06:07.153, 1561475167153
195, -37403.56, 0.00, 0.00, 0.00, 0.00, 0.00, 0.00, 0.00, 0.000, 0.000, 0.000, 11:06:07.154, 1561475167154
196, -37144.04, 0.00, 0.00, 0.00, 0.00, 0.00, 0.00, 0.00, 0.000, 0.000, 0.000, 11:06:07.154, 1561475167154
197, -36634.22, 0.00, 0.00, 0.00, 0.00, 0.00, 0.00, 0.00, 0.000, 0.000, 0.000, 11:06:07.154, 1561475167154
198, -36864.64, 0.00, 0.00, 0.00, 0.00, 0.00, 0.00, 0.00, 0.000, 0.000, 0.000, 11:06:07.154, 1561475167154
199, -37406.52, 0.00, 0.00, 0.00, 0.00, 0.00, 0.00, 0.00, 0.000, 0.000, 0.000, 11:06:07.154, 1561475167154
200, -37236.42, 0.00, 0.00, 0.00, 0.00, 0.00, 0.00, 0.00, 0.088, -0.046, 1.034, 11:06:07.154, 1561475167154
201, -36663.03, 0.00, 0.00, 0.00, 0.00, 0.00, 0.00, 0.00, 0.000, 0.000, 0.000, 11:06:07.154, 1561475167154
202, -36737.06, 0.00, 0.00, 0.00, 0.00, 0.00, 0.00, 0.00, 0.000, 0.000, 0.000, 11:06:07.154, 1561475167154
203, -37311.32, 0.00, 0.00, 0.00, 0.00, 0.00, 0.00, 0.00, 0.000, 0.000, 0.000, 11:06:07.154, 1561475167154
204, -37301.91, 0.00, 0.00, 0.00, 0.00, 0.00, 0.00, 0.00, 0.000, 0.000, 0.000, 11:06:07.154, 1561475167154
205, -36730.31, 0.00, 0.00, 0.00, 0.00, 0.00, 0.00, 0.00, 0.000, 0.000, 0.000, 11:06:07.155, 1561475167155
206, -36673.20, 0.00, 0.00, 0.00, 0.00, 0.00, 0.00, 0.00, 0.000, 0.000, 0.000, 11:06:07.155, 1561475167155
207, -37235.19, 0.00, 0.00, 0.00, 0.00, 0.00, 0.00, 0.00, 0.000, 0.000, 0.000, 11:06:07.155, 1561475167155
208, -37367.80, 0.00, 0.00, 0.00, 0.00, 0.00, 0.00, 0.00, 0.000, 0.000, 0.000, 11:06:07.155, 1561475167155
209, -36831.34, 0.00, 0.00, 0.00, 0.00, 0.00, 0.00, 0.00, 0.000, 0.000, 0.000, 11:06:07.155, 1561475167155
210, -36653.04, 0.00, 0.00, 0.00, 0.00, 0.00, 0.00, 0.00, 0.086, -0.046, 1.028, 11:06:07.155, 1561475167155
211, -37163.02, 0.00, 0.00, 0.00, 0.00, 0.00, 0.00, 0.00, 0.000, 0.000, 0.000, 11:06:07.155, 1561475167155
212, -37431.48, 0.00, 0.00, 0.00, 0.00, 0.00, 0.00, 0.00, 0.000, 0.000, 0.000, 11:06:07.155, 1561475167155
213, -36936.88, 0.00, 0.00, 0.00, 0.00, 0.00, 0.00, 0.00, 0.000, 0.000, 0.000, 11:06:07.155, 1561475167155
214, -36598.97, 0.00, 0.00, 0.00, 0.00, 0.00, 0.00, 0.00, 0.000, 0.000, 0.000, 11:06:07.156, 1561475167156
215, -37032.08, 0.00, 0.00, 0.00, 0.00, 0.00, 0.00, 0.00, 0.000, 0.000, 0.000, 11:06:07.156, 1561475167156
216, -37421.02, 0.00, 0.00, 0.00, 0.00, 0.00, 0.00, 0.00, 0.000, 0.000, 0.000, 11:06:07.156, 1561475167156
217, -37057.38, 0.00, 0.00, 0.00, 0.00, 0.00, 0.00, 0.00, 0.000, 0.000, 0.000, 11:06:07.156, 1561475167156
218, -36605.96, 0.00, 0.00, 0.00, 0.00, 0.00, 0.00, 0.00, 0.000, 0.000, 0.000, 11:06:07.156, 1561475167156
219, -36926.02, 0.00, 0.00, 0.00, 0.00, 0.00, 0.00, 0.00, 0.000, 0.000, 0.000, 11:06:07.156, 1561475167156
220, -37402.94, 0.00, 0.00, 0.00, 0.00, 0.00, 0.00, 0.00, 0.088, -0.052, 1.020, 11:06:07.156, 1561475167156
221, -37129.55, 0.00, 0.00, 0.00, 0.00, 0.00, 0.00, 0.00, 0.000, 0.000, 0.000, 11:06:07.156, 1561475167156
222, -36638.20, 0.00, 0.00, 0.00, 0.00, 0.00, 0.00, 0.00, 0.000, 0.000, 0.000, 11:06:07.157, 1561475167157
223, -36850.34, 0.00, 0.00, 0.00, 0.00, 0.00, 0.00, 0.00, 0.000, 0.000, 0.000, 11:06:07.157, 1561475167157
224, -37386.78, 0.00, 0.00, 0.00, 0.00, 0.00, 0.00, 0.00, 0.000, 0.000, 0.000, 11:06:07.157, 1561475167157
225, -37232.15, 0.00, 0.00, 0.00, 0.00, 0.00, 0.00, 0.00, 0.000, 0.000, 0.000, 11:06:07.627, 1561475167627
226, -36656.50, 0.00, 0.00, 0.00, 0.00, 0.00, 0.00, 0.00, 0.000, 0.000, 0.000, 11:06:07.627, 1561475167627
227, -36744.48, 0.00, 0.00, 0.00, 0.00, 0.00, 0.00, 0.00, 0.000, 0.000, 0.000, 11:06:07.627, 1561475167627
228, -37315.72, 0.00, 0.00, 0.00, 0.00, 0.00, 0.00, 0.00, 0.000, 0.000, 0.000, 11:06:07.627, 1561475167627
229, -37293.91, 0.00, 0.00, 0.00, 0.00, 0.00, 0.00, 0.00, 0.000, 0.000, 0.000, 11:06:07.627, 1561475167627
230, -36720.11, 0.00, 0.00, 0.00, 0.00, 0.00, 0.00, 0.00, 0.000, 0.000, 0.000, 11:06:07.627, 1561475167627
231, -36670.32, 0.00, 0.00, 0.00, 0.00, 0.00, 0.00, 0.00, 0.090, -0.048, 1.028, 11:06:07.627, 1561475167627
232, -37239.68, 0.00, 0.00, 0.00, 0.00, 0.00, 0.00, 0.00, 0.000, 0.000, 0.000, 11:06:07.627, 1561475167627
233, -37388.95, 0.00, 0.00, 0.00, 0.00, 0.00, 0.00, 0.00, 0.000, 0.000, 0.000, 11:06:07.627, 1561475167627
234, -36854.83, 0.00, 0.00, 0.00, 0.00, 0.00, 0.00, 0.00, 0.000, 0.000, 0.000, 11:06:07.627, 1561475167627
235, -36641.97, 0.00, 0.00, 0.00, 0.00, 0.00, 0.00, 0.00, 0.000, 0.000, 0.000, 11:06:07.628, 1561475167628
236, -37145.87, 0.00, 0.00, 0.00, 0.00, 0.00, 0.00, 0.00, 0.000, 0.000, 0.000, 11:06:07.628, 1561475167628
237, -37422.90, 0.00, 0.00, 0.00, 0.00, 0.00, 0.00, 0.00, 0.000, 0.000, 0.000, 11:06:07.628, 1561475167628
238, -36932.81, 0.00, 0.00, 0.00, 0.00, 0.00, 0.00, 0.00, 0.000, 0.000, 0.000, 11:06:07.628, 1561475167628
239, -36597.83, 0.00, 0.00, 0.00, 0.00, 0.00, 0.00, 0.00, 0.000, 0.000, 0.000, 11:06:07.628, 1561475167628
240, -37039.12, 0.00, 0.00, 0.00, 0.00, 0.00, 0.00, 0.00, 0.000, 0.000, 0.000, 11:06:07.628, 1561475167628
241, -37453.07, 0.00, 0.00, 0.00, 0.00, 0.00, 0.00, 0.00, 0.094, -0.050, 1.028, 11:06:07.628, 1561475167628
242, -37048.11, 0.00, 0.00, 0.00, 0.00, 0.00, 0.00, 0.00, 0.000, 0.000, 0.000, 11:06:07.628, 1561475167628
243, -36612.98, 0.00, 0.00, 0.00, 0.00, 0.00, 0.00, 0.00, 0.000, 0.000, 0.000, 11:06:07.628, 1561475167628
244, -36962.16, 0.00, 0.00, 0.00, 0.00, 0.00, 0.00, 0.00, 0.000, 0.000, 0.000, 11:06:07.628, 1561475167628
245, -37432.04, 0.00, 0.00, 0.00, 0.00, 0.00, 0.00, 0.00, 0.000, 0.000, 0.000, 11:06:07.628, 1561475167628
246, -37119.09, 0.00, 0.00, 0.00, 0.00, 0.00, 0.00, 0.00, 0.000, 0.000, 0.000, 11:06:07.628, 1561475167628
247, -36605.23, 0.00, 0.00, 0.00, 0.00, 0.00, 0.00, 0.00, 0.000, 0.000, 0.000, 11:06:07.629, 1561475167629
248, -36844.32, 0.00, 0.00, 0.00, 0.00, 0.00, 0.00, 0.00, 0.000, 0.000, 0.000, 11:06:07.629, 1561475167629
249, -37383.83, 0.00, 0.00, 0.00, 0.00, 0.00, 0.00, 0.00, 0.000, 0.000, 0.000, 11:06:07.629, 1561475167629
250, -37211.34, 0.00, 0.00, 0.00, 0.00, 0.00, 0.00, 0.00, 0.000, 0.000, 0.000, 11:06:07.629, 1561475167629
251, -36665.02, 0.00, 0.00, 0.00, 0.00, 0.00, 0.00, 0.00, 0.094, -0.046, 1.028, 11:06:07.629, 1561475167629
252, -36762.32, 0.00, 0.00, 0.00, 0.00, 0.00, 0.00, 0.00, 0.000, 0.000, 0.000, 11:06:07.629, 1561475167629
253, -37334.39, 0.00, 0.00, 0.00, 0.00, 0.00, 0.00, 0.00, 0.000, 0.000, 0.000, 11:06:07.629, 1561475167629
254, -37336.64, 0.00, 0.00, 0.00, 0.00, 0.00, 0.00, 0.00, 0.000, 0.000, 0.000, 11:06:07.629, 1561475167629
255, -36790.90, 0.00, 0.00, 0.00, 0.00, 0.00, 0.00, 0.00, 0.000, 0.000, 0.000, 11:06:07.629, 1561475167629
0, -36731.80, 0.00, 0.00, 0.00, 0.00, 0.00, 0.00, 0.00, 0.000, 0.000, 0.000, 11:06:07.630, 1561475167630
1, -37280.59, 0.00, 0.00, 0.00, 0.00, 0.00, 0.00, 0.00, 0.000, 0.000, 0.000, 11:06:07.630, 1561475167630
2, -37399.59, 0.00, 0.00, 0.00, 0.00, 0.00, 0.00, 0.00, 0.000, 0.000, 0.000, 11:06:07.630, 1561475167630
3, -36862.72, 0.00, 0.00, 0.00, 0.00, 0.00, 0.00, 0.00, 0.000, 0.000, 0.000, 11:06:07.630, 1561475167630
4, -36635.52, 0.00, 0.00, 0.00, 0.00, 0.00, 0.00, 0.00, 0.000, 0.000, 0.000, 11:06:07.630, 1561475167630
5, -37155.73, 0.00, 0.00, 0.00, 0.00, 0.00, 0.00, 0.00, 0.090, -0.044, 1.030, 11:06:07.630, 1561475167630
6, -37413.91, 0.00, 0.00, 0.00, 0.00, 0.00, 0.00, 0.00, 0.000, 0.000, 0.000, 11:06:07.630, 1561475167630
7, -36932.39, 0.00, 0.00, 0.00, 0.00, 0.00, 0.00, 0.00, 0.000, 0.000, 0.000, 11:06:07.630, 1561475167630
8, -36632.86, 0.00, 0.00, 0.00, 0.00, 0.00, 0.00, 0.00, 0.000, 0.000, 0.000, 11:06:07.630, 1561475167630
9, -37093.32, 0.00, 0.00, 0.00, 0.00, 0.00, 0.00, 0.00, 0.000, 0.000, 0.000, 11:06:07.630, 1561475167630
10, -37468.88, 0.00, 0.00, 0.00, 0.00, 0.00, 0.00, 0.00, 0.000, 0.000, 0.000, 11:06:07.630, 1561475167630
11, -37046.56, 0.00, 0.00, 0.00, 0.00, 0.00, 0.00, 0.00, 0.000, 0.000, 0.000, 11:06:07.630, 1561475167630
12, -36599.82, 0.00, 0.00, 0.00, 0.00, 0.00, 0.00, 0.00, 0.000, 0.000, 0.000, 11:06:07.630, 1561475167630
13, -36967.84, 0.00, 0.00, 0.00, 0.00, 0.00, 0.00, 0.00, 0.000, 0.000, 0.000, 11:06:07.630, 1561475167630
14, -37438.59, 0.00, 0.00, 0.00, 0.00, 0.00, 0.00, 0.00, 0.000, 0.000, 0.000, 11:06:07.630, 1561475167630
15, -37143.97, 0.00, 0.00, 0.00, 0.00, 0.00, 0.00, 0.00, 0.088, -0.052, 1.026, 11:06:07.630, 1561475167630
16, -36624.74, 0.00, 0.00, 0.00, 0.00, 0.00, 0.00, 0.00, 0.000, 0.000, 0.000, 11:06:07.630, 1561475167630
17, -36846.25, 0.00, 0.00, 0.00, 0.00, 0.00, 0.00, 0.00, 0.000, 0.000, 0.000, 11:06:07.630, 1561475167630
18, -37399.52, 0.00, 0.00, 0.00, 0.00, 0.00, 0.00, 0.00, 0.000, 0.000, 0.000, 11:06:07.630, 1561475167630
19, -37235.23, 0.00, 0.00, 0.00, 0.00, 0.00, 0.00, 0.00, 0.000, 0.000, 0.000, 11:06:07.630, 1561475167630
20, -36685.18, 0.00, 0.00, 0.00, 0.00, 0.00, 0.00, 0.00, 0.000, 0.000, 0.000, 11:06:07.630, 1561475167630
21, -36785.29, 0.00, 0.00, 0.00, 0.00, 0.00, 0.00, 0.00, 0.000, 0.000, 0.000, 11:06:07.631, 1561475167631
22, -37343.15, 0.00, 0.00, 0.00, 0.00, 0.00, 0.00, 0.00, 0.000, 0.000, 0.000, 11:06:07.631, 1561475167631
23, -37324.53, 0.00, 0.00, 0.00, 0.00, 0.00, 0.00, 0.00, 0.000, 0.000, 0.000, 11:06:07.631, 1561475167631
24, -36753.06, 0.00, 0.00, 0.00, 0.00, 0.00, 0.00, 0.00, 0.000, 0.000, 0.000, 11:06:07.631, 1561475167631
25, -36709.09, 0.00, 0.00, 0.00, 0.00, 0.00, 0.00, 0.00, 0.092, -0.050, 1.030, 11:06:07.631, 1561475167631
26, -37279.00, 0.00, 0.00, 0.00, 0.00, 0.00, 0.00, 0.00, 0.000, 0.000, 0.000, 11:06:07.631, 1561475167631
27, -37402.58, 0.00, 0.00, 0.00, 0.00, 0.00, 0.00, 0.00, 0.000, 0.000, 0.000, 11:06:07.631, 1561475167631
28, -36852.13, 0.00, 0.00, 0.00, 0.00, 0.00, 0.00, 0.00, 0.000, 0.000, 0.000, 11:06:07.631, 1561475167631
29, -36634.24, 0.00, 0.00, 0.00, 0.00, 0.00, 0.00, 0.00, 0.000, 0.000, 0.000, 11:06:07.631, 1561475167631
30, -37152.69, 0.00, 0.00, 0.00, 0.00, 0.00, 0.00, 0.00, 0.000, 0.000, 0.000, 11:06:07.631, 1561475167631
31, -37418.56, 0.00, 0.00, 0.00, 0.00, 0.00, 0.00, 0.00, 0.000, 0.000, 0.000, 11:06:07.631, 1561475167631
32, -36939.39, 0.00, 0.00, 0.00, 0.00, 0.00, 0.00, 0.00, 0.000, 0.000, 0.000, 11:06:07.631, 1561475167631
33, -36619.40, 0.00, 0.00, 0.00, 0.00, 0.00, 0.00, 0.00, 0.000, 0.000, 0.000, 11:06:07.631, 1561475167631
34, -37080.52, 0.00, 0.00, 0.00, 0.00, 0.00, 0.00, 0.00, 0.000, 0.000, 0.000, 11:06:07.631, 1561475167631
35, -37457.95, 0.00, 0.00, 0.00, 0.00, 0.00, 0.00, 0.00, 0.000, 0.000, 0.000, 11:06:07.631, 1561475167631
36, -37026.27, 0.00, 0.00, 0.00, 0.00, 0.00, 0.00, 0.00, 0.086, -0.050, 1.036, 11:06:07.631, 1561475167631
37, -36580.93, 0.00, 0.00, 0.00, 0.00, 0.00, 0.00, 0.00, 0.000, 0.000, 0.000, 11:06:07.631, 1561475167631
38, -36962.74, 0.00, 0.00, 0.00, 0.00, 0.00, 0.00, 0.00, 0.000, 0.000, 0.000, 11:06:07.631, 1561475167631
39, -37451.75, 0.00, 0.00, 0.00, 0.00, 0.00, 0.00, 0.00, 0.000, 0.000, 0.000, 11:06:07.634, 1561475167634
40, -37136.71, 0.00, 0.00, 0.00, 0.00, 0.00, 0.00, 0.00, 0.000, 0.000, 0.000, 11:06:07.634, 1561475167634
41, -36608.71, 0.00, 0.00, 0.00, 0.00, 0.00, 0.00, 0.00, 0.000, 0.000, 0.000, 11:06:07.634, 1561475167634
42, -36875.66, 0.00, 0.00, 0.00, 0.00, 0.00, 0.00, 0.00, 0.000, 0.000, 0.000, 11:06:07.634, 1561475167634
43, -37417.78, 0.00, 0.00, 0.00, 0.00, 0.00, 0.00, 0.00, 0.000, 0.000, 0.000, 11:06:07.634, 1561475167634
44, -37237.60, 0.00, 0.00, 0.00, 0.00, 0.00, 0.00, 0.00, 0.000, 0.000, 0.000, 11:06:07.634, 1561475167634
45, -36676.89, 0.00, 0.00, 0.00, 0.00, 0.00, 0.00, 0.00, 0.000, 0.000, 0.000, 11:06:07.634, 1561475167634
46, -36772.17, 0.00, 0.00, 0.00, 0.00, 0.00, 0.00, 0.00, 0.080, -0.048, 1.030, 11:06:07.634, 1561475167634
47, -37349.47, 0.00, 0.00, 0.00, 0.00, 0.00, 0.00, 0.00, 0.000, 0.000, 0.000, 11:06:07.634, 1561475167634
48, -37328.39, 0.00, 0.00, 0.00, 0.00, 0.00, 0.00, 0.00, 0.000, 0.000, 0.000, 11:06:07.634, 1561475167634
49, -36758.92, 0.00, 0.00, 0.00, 0.00, 0.00, 0.00, 0.00, 0.000, 0.000, 0.000, 11:06:07.634, 1561475167634
50, -36704.85, 0.00, 0.00, 0.00, 0.00, 0.00, 0.00, 0.00, 0.000, 0.000, 0.000, 11:06:07.634, 1561475167634
51, -37247.73, 0.00, 0.00, 0.00, 0.00, 0.00, 0.00, 0.00, 0.000, 0.000, 0.000, 11:06:07.635, 1561475167635
52, -37346.05, 0.00, 0.00, 0.00, 0.00, 0.00, 0.00, 0.00, 0.000, 0.000, 0.000, 11:06:07.635, 1561475167635
53, -36795.51, 0.00, 0.00, 0.00, 0.00, 0.00, 0.00, 0.00, 0.000, 0.000, 0.000, 11:06:07.635, 1561475167635
54, -36608.73, 0.00, 0.00, 0.00, 0.00, 0.00, 0.00, 0.00, 0.000, 0.000, 0.000, 11:06:07.635, 1561475167635
55, -37135.23, 0.00, 0.00, 0.00, 0.00, 0.00, 0.00, 0.00, 0.000, 0.000, 0.000, 11:06:07.635, 1561475167635
56, -37419.03, 0.00, 0.00, 0.00, 0.00, 0.00, 0.00, 0.00, 0.090, -0.048, 1.028, 11:06:07.635, 1561475167635
57, -36941.15, 0.00, 0.00, 0.00, 0.00, 0.00, 0.00, 0.00, 0.000, 0.000, 0.000, 11:06:07.635, 1561475167635
58, -36610.28, 0.00, 0.00, 0.00, 0.00, 0.00, 0.00, 0.00, 0.000, 0.000, 0.000, 11:06:07.635, 1561475167635
59, -37087.11, 0.00, 0.00, 0.00, 0.00, 0.00, 0.00, 0.00, 0.000, 0.000, 0.000, 11:06:07.635, 1561475167635
60, -37484.30, 0.00, 0.00, 0.00, 0.00, 0.00, 0.00, 0.00, 0.000, 0.000, 0.000, 11:06:07.635, 1561475167635
61, -37073.38, 0.00, 0.00, 0.00, 0.00, 0.00, 0.00, 0.00, 0.000, 0.000, 0.000, 11:06:07.635, 1561475167635
62, -36622.93, 0.00, 0.00, 0.00, 0.00, 0.00, 0.00, 0.00, 0.000, 0.000, 0.000, 11:06:07.635, 1561475167635
63, -36971.10, 0.00, 0.00, 0.00, 0.00, 0.00, 0.00, 0.00, 0.000, 0.000, 0.000, 11:06:07.635, 1561475167635
64, -37448.04, 0.00, 0.00, 0.00, 0.00, 0.00, 0.00, 0.00, 0.000, 0.000, 0.000, 11:06:07.636, 1561475167636
65, -37158.19, 0.00, 0.00, 0.00, 0.00, 0.00, 0.00, 0.00, 0.000, 0.000, 0.000, 11:06:07.636, 1561475167636
66, -36642.02, 0.00, 0.00, 0.00, 0.00, 0.00, 0.00, 0.00, 0.088, -0.050, 1.036, 11:06:07.636, 1561475167636
67, -36861.27, 0.00, 0.00, 0.00, 0.00, 0.00, 0.00, 0.00, 0.000, 0.000, 0.000, 11:06:07.636, 1561475167636
68, -37416.82, 0.00, 0.00, 0.00, 0.00, 0.00, 0.00, 0.00, 0.000, 0.000, 0.000, 11:06:07.636, 1561475167636
69, -37268.54, 0.00, 0.00, 0.00, 0.00, 0.00, 0.00, 0.00, 0.000, 0.000, 0.000, 11:06:07.636, 1561475167636
70, -36716.25, 0.00, 0.00, 0.00, 0.00, 0.00, 0.00, 0.00, 0.000, 0.000, 0.000, 11:06:07.636, 1561475167636
71, -36812.18, 0.00, 0.00, 0.00, 0.00, 0.00, 0.00, 0.00, 0.000, 0.000, 0.000, 11:06:07.636, 1561475167636
72, -37372.38, 0.00, 0.00, 0.00, 0.00, 0.00, 0.00, 0.00, 0.000, 0.000, 0.000, 11:06:07.636, 1561475167636
73, -37343.64, 0.00, 0.00, 0.00, 0.00, 0.00, 0.00, 0.00, 0.000, 0.000, 0.000, 11:06:07.636, 1561475167636
74, -36774.86, 0.00, 0.00, 0.00, 0.00, 0.00, 0.00, 0.00, 0.000, 0.000, 0.000, 11:06:07.636, 1561475167636
75, -36709.61, 0.00, 0.00, 0.00, 0.00, 0.00, 0.00, 0.00, 0.000, 0.000, 0.000, 11:06:07.636, 1561475167636
76, -37264.96, 0.00, 0.00, 0.00, 0.00, 0.00, 0.00, 0.00, 0.088, -0.046, 1.032, 11:06:07.636, 1561475167636
77, -37381.53, 0.00, 0.00, 0.00, 0.00, 0.00, 0.00, 0.00, 0.000, 0.000, 0.000, 11:06:07.636, 1561475167636
78, -36821.46, 0.00, 0.00, 0.00, 0.00, 0.00, 0.00, 0.00, 0.000, 0.000, 0.000, 11:06:07.637, 1561475167637
79, -36639.67, 0.00, 0.00, 0.00, 0.00, 0.00, 0.00, 0.00, 0.000, 0.000, 0.000, 11:06:07.637, 1561475167637
80, -37184.20, 0.00, 0.00, 0.00, 0.00, 0.00, 0.00, 0.00, 0.000, 0.000, 0.000, 11:06:07.637, 1561475167637
81, -37439.51, 0.00, 0.00, 0.00, 0.00, 0.00, 0.00, 0.00, 0.000, 0.000, 0.000, 11:06:07.637, 1561475167637
82, -36941.04, 0.00, 0.00, 0.00, 0.00, 0.00, 0.00, 0.00, 0.000, 0.000, 0.000, 11:06:07.637, 1561475167637
83, -36612.36, 0.00, 0.00, 0.00, 0.00, 0.00, 0.00, 0.00, 0.000, 0.000, 0.000, 11:06:07.637, 1561475167637
84, -37093.77, 0.00, 0.00, 0.00, 0.00, 0.00, 0.00, 0.00, 0.000, 0.000, 0.000, 11:06:07.637, 1561475167637
85, -37503.14, 0.00, 0.00, 0.00, 0.00, 0.00, 0.00, 0.00, 0.000, 0.000, 0.000, 11:06:07.637, 1561475167637
86, -37071.84, 0.00, 0.00, 0.00, 0.00, 0.00, 0.00, 0.00, 0.000, 0.000, 0.000, 11:06:07.637, 1561475167637
87, -36601.72, 0.00, 0.00, 0.00, 0.00, 0.00, 0.00, 0.00, 0.088, -0.048, 1.028, 11:06:07.637, 1561475167637
88, -36965.40, 0.00, 0.00, 0.00, 0.00, 0.00, 0.00, 0.00, 0.000, 0.000, 0.000, 11:06:07.637, 1561475167637
89, -37468.25, 0.00, 0.00, 0.00, 0.00, 0.00, 0.00, 0.00, 0.000, 0.000, 0.000, 11:06:07.637, 1561475167637
90, -37178.71, 0.00, 0.00, 0.00, 0.00, 0.00, 0.00, 0.00, 0.000, 0.000, 0.000, 11:06:08.107, 1561475168107
91, -36637.10, 0.00, 0.00, 0.00, 0.00, 0.00, 0.00, 0.00, 0.000, 0.000, 0.000, 11:06:08.108, 1561475168108
92, -36861.29, 0.00, 0.00, 0.00, 0.00, 0.00, 0.00, 0.00, 0.000, 0.000, 0.000, 11:06:08.108, 1561475168108
93, -37409.44, 0.00, 0.00, 0.00, 0.00, 0.00, 0.00, 0.00, 0.000, 0.000, 0.000, 11:06:08.108, 1561475168108
94, -37229.22, 0.00, 0.00, 0.00, 0.00, 0.00, 0.00, 0.00, 0.000, 0.000, 0.000, 11:06:08.108, 1561475168108
95, -36678.38, 0.00, 0.00, 0.00, 0.00, 0.00, 0.00, 0.00, 0.000, 0.000, 0.000, 11:06:08.108, 1561475168108
96, -36796.71, 0.00, 0.00, 0.00, 0.00, 0.00, 0.00, 0.00, 0.000, 0.000, 0.000, 11:06:08.108, 1561475168108
97, -37371.13, 0.00, 0.00, 0.00, 0.00, 0.00, 0.00, 0.00, 0.086, -0.054, 1.032, 11:06:08.108, 1561475168108
98, -37313.75, 0.00, 0.00, 0.00, 0.00, 0.00, 0.00, 0.00, 0.000, 0.000, 0.000, 11:06:08.108, 1561475168108
99, -36736.88, 0.00, 0.00, 0.00, 0.00, 0.00, 0.00, 0.00, 0.000, 0.000, 0.000, 11:06:08.108, 1561475168108
100, -36696.36, 0.00, 0.00, 0.00, 0.00, 0.00, 0.00, 0.00, 0.000, 0.000, 0.000, 11:06:08.108, 1561475168108
101, -37269.66, 0.00, 0.00, 0.00, 0.00, 0.00, 0.00, 0.00, 0.000, 0.000, 0.000, 11:06:08.108, 1561475168108
102, -37416.19, 0.00, 0.00, 0.00, 0.00, 0.00, 0.00, 0.00, 0.000, 0.000, 0.000, 11:06:08.108, 1561475168108
103, -36861.85, 0.00, 0.00, 0.00, 0.00, 0.00, 0.00, 0.00, 0.000, 0.000, 0.000, 11:06:08.108, 1561475168108
104, -36646.71, 0.00, 0.00, 0.00, 0.00, 0.00, 0.00, 0.00, 0.000, 0.000, 0.000, 11:06:08.108, 1561475168108
105, -37159.77, 0.00, 0.00, 0.00, 0.00, 0.00, 0.00, 0.00, 0.000, 0.000, 0.000, 11:06:08.108, 1561475168108
106, -37446.12, 0.00, 0.00, 0.00, 0.00, 0.00, 0.00, 0.00, 0.000, 0.000, 0.000, 11:06:08.108, 1561475168108
107, -36978.32, 0.00, 0.00, 0.00, 0.00, 0.00, 0.00, 0.00, 0.094, -0.054, 1.028, 11:06:08.108, 1561475168108
108, -36633.30, 0.00, 0.00, 0.00, 0.00, 0.00, 0.00, 0.00, 0.000, 0.000, 0.000, 11:06:08.108, 1561475168108
109, -37078.68, 0.00, 0.00, 0.00, 0.00, 0.00, 0.00, 0.00, 0.000, 0.000, 0.000, 11:06:08.108, 1561475168108
110, -37447.75, 0.00, 0.00, 0.00, 0.00, 0.00, 0.00, 0.00, 0.000, 0.000, 0.000, 11:06:08.108, 1561475168108
111, -37029.69, 0.00, 0.00, 0.00, 0.00, 0.00, 0.00, 0.00, 0.000, 0.000, 0.000, 11:06:08.108, 1561475168108
112, -36582.20, 0.00, 0.00, 0.00, 0.00, 0.00, 0.00, 0.00, 0.000, 0.000, 0.000, 11:06:08.108, 1561475168108
113, -36938.92, 0.00, 0.00, 0.00, 0.00, 0.00, 0.00, 0.00, 0.000, 0.000, 0.000, 11:06:08.108, 1561475168108
114, -37426.25, 0.00, 0.00, 0.00, 0.00, 0.00, 0.00, 0.00, 0.000, 0.000, 0.000, 11:06:08.109, 1561475168109
115, -37122.20, 0.00, 0.00, 0.00, 0.00, 0.00, 0.00, 0.00, 0.000, 0.000, 0.000, 11:06:08.109, 1561475168109
116, -36626.33, 0.00, 0.00, 0.00, 0.00, 0.00, 0.00, 0.00, 0.000, 0.000, 0.000, 11:06:08.109, 1561475168109
117, -36868.89, 0.00, 0.00, 0.00, 0.00, 0.00, 0.00, 0.00, 0.096, -0.054, 1.026, 11:06:08.109, 1561475168109
118, -37411.43, 0.00, 0.00, 0.00, 0.00, 0.00, 0.00, 0.00, 0.000, 0.000, 0.000, 11:06:08.109, 1561475168109
119, -37258.68, 0.00, 0.00, 0.00, 0.00, 0.00, 0.00, 0.00, 0.000, 0.000, 0.000, 11:06:08.109, 1561475168109
120, -36700.29, 0.00, 0.00, 0.00, 0.00, 0.00, 0.00, 0.00, 0.000, 0.000, 0.000, 11:06:08.109, 1561475168109
121, -36780.40, 0.00, 0.00, 0.00, 0.00, 0.00, 0.00, 0.00, 0.000, 0.000, 0.000, 11:06:08.109, 1561475168109
122, -37364.43, 0.00, 0.00, 0.00, 0.00, 0.00, 0.00, 0.00, 0.000, 0.000, 0.000, 11:06:08.109, 1561475168109
123, -37345.20, 0.00, 0.00, 0.00, 0.00, 0.00, 0.00, 0.00, 0.000, 0.000, 0.000, 11:06:08.109, 1561475168109
124, -36756.73, 0.00, 0.00, 0.00, 0.00, 0.00, 0.00, 0.00, 0.000, 0.000, 0.000, 11:06:08.109, 1561475168109
125, -36708.09, 0.00, 0.00, 0.00, 0.00, 0.00, 0.00, 0.00, 0.000, 0.000, 0.000, 11:06:08.109, 1561475168109
126, -37284.54, 0.00, 0.00, 0.00, 0.00, 0.00, 0.00, 0.00, 0.000, 0.000, 0.000, 11:06:08.109, 1561475168109
127, -37417.29, 0.00, 0.00, 0.00, 0.00, 0.00, 0.00, 0.00, 0.090, -0.050, 1.034, 11:06:08.109, 1561475168109
128, -36844.64, 0.00, 0.00, 0.00, 0.00, 0.00, 0.00, 0.00, 0.000, 0.000, 0.000, 11:06:08.109, 1561475168109
129, -36628.45, 0.00, 0.00, 0.00, 0.00, 0.00, 0.00, 0.00, 0.000, 0.000, 0.000, 11:06:08.109, 1561475168109
130, -37140.73, 0.00, 0.00, 0.00, 0.00, 0.00, 0.00, 0.00, 0.000, 0.000, 0.000, 11:06:08.109, 1561475168109
131, -37428.26, 0.00, 0.00, 0.00, 0.00, 0.00, 0.00, 0.00, 0.000, 0.000, 0.000, 11:06:08.109, 1561475168109
132, -36950.16, 0.00, 0.00, 0.00, 0.00, 0.00, 0.00, 0.00, 0.000, 0.000, 0.000, 11:06:08.109, 1561475168109
133, -36620.32, 0.00, 0.00, 0.00, 0.00, 0.00, 0.00, 0.00, 0.000, 0.000, 0.000, 11:06:08.109, 1561475168109
134, -37085.59, 0.00, 0.00, 0.00, 0.00, 0.00, 0.00, 0.00, 0.000, 0.000, 0.000, 11:06:08.109, 1561475168109
135, -37495.88, 0.00, 0.00, 0.00, 0.00, 0.00, 0.00, 0.00, 0.000, 0.000, 0.000, 11:06:08.109, 1561475168109
136, -37074.52, 0.00, 0.00, 0.00, 0.00, 0.00, 0.00, 0.00, 0.000, 0.000, 0.000, 11:06:08.109, 1561475168109
137, -36616.98, 0.00, 0.00, 0.00, 0.00, 0.00, 0.00, 0.00, 0.088, -0.054, 1.032, 11:06:08.109, 1561475168109
138, -36992.61, 0.00, 0.00, 0.00, 0.00, 0.00, 0.00, 0.00, 0.000, 0.000, 0.000, 11:06:08.109, 1561475168109
139, -37471.45, 0.00, 0.00, 0.00, 0.00, 0.00, 0.00, 0.00, 0.000, 0.000, 0.000, 11:06:08.110, 1561475168110
140, -37162.95, 0.00, 0.00, 0.00, 0.00, 0.00, 0.00, 0.00, 0.000, 0.000, 0.000, 11:06:08.110, 1561475168110
141, -36630.21, 0.00, 0.00, 0.00, 0.00, 0.00, 0.00, 0.00, 0.000, 0.000, 0.000, 11:06:08.110, 1561475168110
142, -36885.90, 0.00, 0.00, 0.00, 0.00, 0.00, 0.00, 0.00, 0.000, 0.000, 0.000, 11:06:08.110, 1561475168110
143, -37439.39, 0.00, 0.00, 0.00, 0.00, 0.00, 0.00, 0.00, 0.000, 0.000, 0.000, 11:06:08.110, 1561475168110
144, -37271.22, 0.00, 0.00, 0.00, 0.00, 0.00, 0.00, 0.00, 0.000, 0.000, 0.000, 11:06:08.110, 1561475168110
145, -36685.40, 0.00, 0.00, 0.00, 0.00, 0.00, 0.00, 0.00, 0.000, 0.000, 0.000, 11:06:08.110, 1561475168110
146, -36773.74, 0.00, 0.00, 0.00, 0.00, 0.00, 0.00, 0.00, 0.000, 0.000, 0.000, 11:06:08.110, 1561475168110
147, -37345.27, 0.00, 0.00, 0.00, 0.00, 0.00, 0.00, 0.00, 0.000, 0.000, 0.000, 11:06:08.110, 1561475168110
148, -37321.94, 0.00, 0.00, 0.00, 0.00, 0.00, 0.00, 0.00, 0.086, -0.050, 1.028, 11:06:08.110, 1561475168110
149, -36723.71, 0.00, 0.00, 0.00, 0.00, 0.00, 0.00, 0.00, 0.000, 0.000, 0.000, 11:06:08.110, 1561475168110
150, -36678.38, 0.00, 0.00, 0.00, 0.00, 0.00, 0.00, 0.00, 0.000, 0.000, 0.000, 11:06:08.110, 1561475168110
151, -37276.36, 0.00, 0.00, 0.00, 0.00, 0.00, 0.00, 0.00, 0.000, 0.000, 0.000, 11:06:08.110, 1561475168110
152, -37411.14, 0.00, 0.00, 0.00, 0.00, 0.00, 0.00, 0.00, 0.000, 0.000, 0.000, 11:06:08.110, 1561475168110
153, -36858.16, 0.00, 0.00, 0.00, 0.00, 0.00, 0.00, 0.00, 0.000, 0.000, 0.000, 11:06:08.110, 1561475168110
154, -36664.50, 0.00, 0.00, 0.00, 0.00, 0.00, 0.00, 0.00, 0.000, 0.000, 0.000, 11:06:08.110, 1561475168110
155, -37215.27, 0.00, 0.00, 0.00, 0.00, 0.00, 0.00, 0.00, 0.000, 0.000, 0.000, 11:06:08.110, 1561475168110
156, -37489.06, 0.00, 0.00, 0.00, 0.00, 0.00, 0.00, 0.00, 0.000, 0.000, 0.000, 11:06:08.110, 1561475168110
157, -36985.39, 0.00, 0.00, 0.00, 0.00, 0.00, 0.00, 0.00, 0.000, 0.000, 0.000, 11:06:08.110, 1561475168110
158, -36648.61, 0.00, 0.00, 0.00, 0.00, 0.00, 0.00, 0.00, 0.080, -0.050, 1.028, 11:06:08.110, 1561475168110
159, -37104.86, 0.00, 0.00, 0.00, 0.00, 0.00, 0.00, 0.00, 0.000, 0.000, 0.000, 11:06:08.110, 1561475168110
160, -37492.97, 0.00, 0.00, 0.00, 0.00, 0.00, 0.00, 0.00, 0.000, 0.000, 0.000, 11:06:08.110, 1561475168110
161, -37045.69, 0.00, 0.00, 0.00, 0.00, 0.00, 0.00, 0.00, 0.000, 0.000, 0.000, 11:06:08.110, 1561475168110
162, -36598.81, 0.00, 0.00, 0.00, 0.00, 0.00, 0.00, 0.00, 0.000, 0.000, 0.000, 11:06:08.110, 1561475168110
163, -36967.86, 0.00, 0.00, 0.00, 0.00, 0.00, 0.00, 0.00, 0.000, 0.000, 0.000, 11:06:08.110, 1561475168110
164, -37445.25, 0.00, 0.00, 0.00, 0.00, 0.00, 0.00, 0.00, 0.000, 0.000, 0.000, 11:06:08.110, 1561475168110
165, -37143.82, 0.00, 0.00, 0.00, 0.00, 0.00, 0.00, 0.00, 0.000, 0.000, 0.000, 11:06:08.111, 1561475168111
166, -36640.43, 0.00, 0.00, 0.00, 0.00, 0.00, 0.00, 0.00, 0.000, 0.000, 0.000, 11:06:08.111, 1561475168111
167, -36908.52, 0.00, 0.00, 0.00, 0.00, 0.00, 0.00, 0.00, 0.000, 0.000, 0.000, 11:06:08.111, 1561475168111
168, -37463.89, 0.00, 0.00, 0.00, 0.00, 0.00, 0.00, 0.00, 0.082, -0.044, 1.022, 11:06:08.111, 1561475168111
169, -37287.09, 0.00, 0.00, 0.00, 0.00, 0.00, 0.00, 0.00, 0.000, 0.000, 0.000, 11:06:08.111, 1561475168111
170, -36681.94, 0.00, 0.00, 0.00, 0.00, 0.00, 0.00, 0.00, 0.000, 0.000, 0.000, 11:06:08.111, 1561475168111
171, -36781.54, 0.00, 0.00, 0.00, 0.00, 0.00, 0.00, 0.00, 0.000, 0.000, 0.000, 11:06:08.111, 1561475168111
172, -37370.15, 0.00, 0.00, 0.00, 0.00, 0.00, 0.00, 0.00, 0.000, 0.000, 0.000, 11:06:08.111, 1561475168111
173, -37357.54, 0.00, 0.00, 0.00, 0.00, 0.00, 0.00, 0.00, 0.000, 0.000, 0.000, 11:06:08.111, 1561475168111
174, -36779.93, 0.00, 0.00, 0.00, 0.00, 0.00, 0.00, 0.00, 0.000, 0.000, 0.000, 11:06:08.111, 1561475168111
175, -36720.92, 0.00, 0.00, 0.00, 0.00, 0.00, 0.00, 0.00, 0.000, 0.000, 0.000, 11:06:08.111, 1561475168111
176, -37275.11, 0.00, 0.00, 0.00, 0.00, 0.00, 0.00, 0.00, 0.000, 0.000, 0.000, 11:06:08.111, 1561475168111
177, -37394.55, 0.00, 0.00, 0.00, 0.00, 0.00, 0.00, 0.00, 0.000, 0.000, 0.000, 11:06:08.111, 1561475168111
178, -36848.73, 0.00, 0.00, 0.00, 0.00, 0.00, 0.00, 0.00, 0.086, -0.048, 1.026, 11:06:08.111, 1561475168111
179, -36686.27, 0.00, 0.00, 0.00, 0.00, 0.00, 0.00, 0.00, 0.000, 0.000, 0.000, 11:06:08.111, 1561475168111
180, -37224.86, 0.00, 0.00, 0.00, 0.00, 0.00, 0.00, 0.00, 0.000, 0.000, 0.000, 11:06:08.111, 1561475168111
181, -37465.70, 0.00, 0.00, 0.00, 0.00, 0.00, 0.00, 0.00, 0.000, 0.000, 0.000, 11:06:08.111, 1561475168111
182, -36926.18, 0.00, 0.00, 0.00, 0.00, 0.00, 0.00, 0.00, 0.000, 0.000, 0.000, 11:06:08.111, 1561475168111
183, -36597.00, 0.00, 0.00, 0.00, 0.00, 0.00, 0.00, 0.00, 0.000, 0.000, 0.000, 11:06:08.111, 1561475168111
184, -37069.45, 0.00, 0.00, 0.00, 0.00, 0.00, 0.00, 0.00, 0.000, 0.000, 0.000, 11:06:08.111, 1561475168111
185, -37469.61, 0.00, 0.00, 0.00, 0.00, 0.00, 0.00, 0.00, 0.000, 0.000, 0.000, 11:06:08.111, 1561475168111
186, -37040.04, 0.00, 0.00, 0.00, 0.00, 0.00, 0.00, 0.00, 0.000, 0.000, 0.000, 11:06:08.111, 1561475168111
187, -36591.55, 0.00, 0.00, 0.00, 0.00, 0.00, 0.00, 0.00, 0.000, 0.000, 0.000, 11:06:08.111, 1561475168111
188, -36980.49, 0.00, 0.00, 0.00, 0.00, 0.00, 0.00, 0.00, 0.084, -0.048, 1.032, 11:06:08.111, 1561475168111
189, -37486.04, 0.00, 0.00, 0.00, 0.00, 0.00, 0.00, 0.00, 0.000, 0.000, 0.000, 11:06:08.111, 1561475168111
190, -37183.85, 0.00, 0.00, 0.00, 0.00, 0.00, 0.00, 0.00, 0.000, 0.000, 0.000, 11:06:08.111, 1561475168111
191, -36652.70, 0.00, 0.00, 0.00, 0.00, 0.00, 0.00, 0.00, 0.000, 0.000, 0.000, 11:06:08.112, 1561475168112
192, -36882.99, 0.00, 0.00, 0.00, 0.00, 0.00, 0.00, 0.00, 0.000, 0.000, 0.000, 11:06:08.112, 1561475168112
193, -37421.13, 0.00, 0.00, 0.00, 0.00, 0.00, 0.00, 0.00, 0.000, 0.000, 0.000, 11:06:08.112, 1561475168112
194, -37244.35, 0.00, 0.00, 0.00, 0.00, 0.00, 0.00, 0.00, 0.000, 0.000, 0.000, 11:06:08.112, 1561475168112
195, -36685.52, 0.00, 0.00, 0.00, 0.00, 0.00, 0.00, 0.00, 0.000, 0.000, 0.000, 11:06:08.112, 1561475168112
196, -36798.68, 0.00, 0.00, 0.00, 0.00, 0.00, 0.00, 0.00, 0.000, 0.000, 0.000, 11:06:08.112, 1561475168112
197, -37368.67, 0.00, 0.00, 0.00, 0.00, 0.00, 0.00, 0.00, 0.000, 0.000, 0.000, 11:06:08.112, 1561475168112
198, -37342.14, 0.00, 0.00, 0.00, 0.00, 0.00, 0.00, 0.00, 0.000, 0.000, 0.000, 11:06:08.112, 1561475168112
199, -36746.76, 0.00, 0.00, 0.00, 0.00, 0.00, 0.00, 0.00, 0.082, -0.054, 1.028, 11:06:08.112, 1561475168112
200, -36685.54, 0.00, 0.00, 0.00, 0.00, 0.00, 0.00, 0.00, 0.000, 0.000, 0.000, 11:06:08.113, 1561475168113
201, -37268.52, 0.00, 0.00, 0.00, 0.00, 0.00, 0.00, 0.00, 0.000, 0.000, 0.000, 11:06:08.113, 1561475168113
202, -37391.72, 0.00, 0.00, 0.00, 0.00, 0.00, 0.00, 0.00, 0.000, 0.000, 0.000, 11:06:08.113, 1561475168113
203, -36826.42, 0.00, 0.00, 0.00, 0.00, 0.00, 0.00, 0.00, 0.000, 0.000, 0.000, 11:06:08.113, 1561475168113
204, -36623.71, 0.00, 0.00, 0.00, 0.00, 0.00, 0.00, 0.00, 0.000, 0.000, 0.000, 11:06:08.113, 1561475168113
205, -37153.45, 0.00, 0.00, 0.00, 0.00, 0.00, 0.00, 0.00, 0.000, 0.000, 0.000, 11:06:08.113, 1561475168113
206, -37441.83, 0.00, 0.00, 0.00, 0.00, 0.00, 0.00, 0.00, 0.000, 0.000, 0.000, 11:06:08.113, 1561475168113
207, -36953.67, 0.00, 0.00, 0.00, 0.00, 0.00, 0.00, 0.00, 0.000, 0.000, 0.000, 11:06:08.113, 1561475168113
208, -36614.73, 0.00, 0.00, 0.00, 0.00, 0.00, 0.00, 0.00, 0.000, 0.000, 0.000, 11:06:08.113, 1561475168113
209, -37081.18, 0.00, 0.00, 0.00, 0.00, 0.00, 0.00, 0.00, 0.086, -0.052, 1.026, 11:06:08.113, 1561475168113
210, -37472.81, 0.00, 0.00, 0.00, 0.00, 0.00, 0.00, 0.00, 0.000, 0.000, 0.000, 11:06:08.589, 1561475168589
211, -37054.59, 0.00, 0.00, 0.00, 0.00, 0.00, 0.00, 0.00, 0.000, 0.000, 0.000, 11:06:08.589, 1561475168589
212, -36612.04, 0.00, 0.00, 0.00, 0.00, 0.00, 0.00, 0.00, 0.000, 0.000, 0.000, 11:06:08.590, 1561475168590
213, -36979.98, 0.00, 0.00, 0.00, 0.00, 0.00, 0.00, 0.00, 0.000, 0.000, 0.000, 11:06:08.590, 1561475168590
214, -37469.23, 0.00, 0.00, 0.00, 0.00, 0.00, 0.00, 0.00, 0.000, 0.000, 0.000, 11:06:08.590, 1561475168590
215, -37154.63, 0.00, 0.00, 0.00, 0.00, 0.00, 0.00, 0.00, 0.000, 0.000, 0.000, 11:06:08.590, 1561475168590
216, -36617.21, 0.00, 0.00, 0.00, 0.00, 0.00, 0.00, 0.00, 0.000, 0.000, 0.000, 11:06:08.590, 1561475168590
217, -36853.13, 0.00, 0.00, 0.00, 0.00, 0.00, 0.00, 0.00, 0.000, 0.000, 0.000, 11:06:08.590, 1561475168590
218, -37410.40, 0.00, 0.00, 0.00, 0.00, 0.00, 0.00, 0.00, 0.000, 0.000, 0.000, 11:06:08.590, 1561475168590
219, -37245.43, 0.00, 0.00, 0.00, 0.00, 0.00, 0.00, 0.00, 0.086, -0.056, 1.028, 11:06:08.590, 1561475168590
220, -36677.29, 0.00, 0.00, 0.00, 0.00, 0.00, 0.00, 0.00, 0.000, 0.000, 0.000, 11:06:08.590, 1561475168590
221, -36789.50, 0.00, 0.00, 0.00, 0.00, 0.00, 0.00, 0.00, 0.000, 0.000, 0.000, 11:06:08.590, 1561475168590
222, -37393.59, 0.00, 0.00, 0.00, 0.00, 0.00, 0.00, 0.00, 0.000, 0.000, 0.000, 11:06:08.590, 1561475168590
223, -37363.67, 0.00, 0.00, 0.00, 0.00, 0.00, 0.00, 0.00, 0.000, 0.000, 0.000, 11:06:08.590, 1561475168590
224, -36771.55, 0.00, 0.00, 0.00, 0.00, 0.00, 0.00, 0.00, 0.000, 0.000, 0.000, 11:06:08.590, 1561475168590
225, -36734.02, 0.00, 0.00, 0.00, 0.00, 0.00, 0.00, 0.00, 0.000, 0.000, 0.000, 11:06:08.590, 1561475168590
226, -37295.98, 0.00, 0.00, 0.00, 0.00, 0.00, 0.00, 0.00, 0.000, 0.000, 0.000, 11:06:08.591, 1561475168591
227, -37411.03, 0.00, 0.00, 0.00, 0.00, 0.00, 0.00, 0.00, 0.000, 0.000, 0.000, 11:06:08.591, 1561475168591
228, -36823.80, 0.00, 0.00, 0.00, 0.00, 0.00, 0.00, 0.00, 0.000, 0.000, 0.000, 11:06:08.591, 1561475168591
229, -36601.23, 0.00, 0.00, 0.00, 0.00, 0.00, 0.00, 0.00, 0.084, -0.058, 1.040, 11:06:08.591, 1561475168591
230, -37149.40, 0.00, 0.00, 0.00, 0.00, 0.00, 0.00, 0.00, 0.000, 0.000, 0.000, 11:06:08.591, 1561475168591
231, -37422.09, 0.00, 0.00, 0.00, 0.00, 0.00, 0.00, 0.00, 0.000, 0.000, 0.000, 11:06:08.591, 1561475168591
232, -36937.24, 0.00, 0.00, 0.00, 0.00, 0.00, 0.00, 0.00, 0.000, 0.000, 0.000, 11:06:08.591, 1561475168591
233, -36609.70, 0.00, 0.00, 0.00, 0.00, 0.00, 0.00, 0.00, 0.000, 0.000, 0.000, 11:06:08.591, 1561475168591
234, -37061.34, 0.00, 0.00, 0.00, 0.00, 0.00, 0.00, 0.00, 0.000, 0.000, 0.000, 11:06:08.591, 1561475168591
235, -37451.89, 0.00, 0.00, 0.00, 0.00, 0.00, 0.00, 0.00, 0.000, 0.000, 0.000, 11:06:08.591, 1561475168591
236, -37041.38, 0.00, 0.00, 0.00, 0.00, 0.00, 0.00, 0.00, 0.000, 0.000, 0.000, 11:06:08.591, 1561475168591
237, -36566.71, 0.00, 0.00, 0.00, 0.00, 0.00, 0.00, 0.00, 0.000, 0.000, 0.000, 11:06:08.591, 1561475168591
238, -36914.33, 0.00, 0.00, 0.00, 0.00, 0.00, 0.00, 0.00, 0.000, 0.000, 0.000, 11:06:08.591, 1561475168591
239, -37437.79, 0.00, 0.00, 0.00, 0.00, 0.00, 0.00, 0.00, 0.086, -0.048, 1.036, 11:06:08.591, 1561475168591
240, -37172.74, 0.00, 0.00, 0.00, 0.00, 0.00, 0.00, 0.00, 0.000, 0.000, 0.000, 11:06:08.591, 1561475168591
241, -36629.64, 0.00, 0.00, 0.00, 0.00, 0.00, 0.00, 0.00, 0.000, 0.000, 0.000, 11:06:08.592, 1561475168592
242, -36854.49, 0.00, 0.00, 0.00, 0.00, 0.00, 0.00, 0.00, 0.000, 0.000, 0.000, 11:06:08.592, 1561475168592
243, -37416.15, 0.00, 0.00, 0.00, 0.00, 0.00, 0.00, 0.00, 0.000, 0.000, 0.000, 11:06:08.592, 1561475168592
244, -37242.81, 0.00, 0.00, 0.00, 0.00, 0.00, 0.00, 0.00, 0.000, 0.000, 0.000, 11:06:08.592, 1561475168592
245, -36635.67, 0.00, 0.00, 0.00, 0.00, 0.00, 0.00, 0.00, 0.000, 0.000, 0.000, 11:06:08.592, 1561475168592
246, -36700.04, 0.00, 0.00, 0.00, 0.00, 0.00, 0.00, 0.00, 0.000, 0.000, 0.000, 11:06:08.592, 1561475168592
247, -37307.07, 0.00, 0.00, 0.00, 0.00, 0.00, 0.00, 0.00, 0.000, 0.000, 0.000, 11:06:08.592, 1561475168592
248, -37310.92, 0.00, 0.00, 0.00, 0.00, 0.00, 0.00, 0.00, 0.000, 0.000, 0.000, 11:06:08.592, 1561475168592
249, -36739.70, 0.00, 0.00, 0.00, 0.00, 0.00, 0.00, 0.00, 0.090, -0.042, 1.034, 11:06:08.592, 1561475168592
250, -36674.88, 0.00, 0.00, 0.00, 0.00, 0.00, 0.00, 0.00, 0.000, 0.000, 0.000, 11:06:08.592, 1561475168592
251, -37246.32, 0.00, 0.00, 0.00, 0.00, 0.00, 0.00, 0.00, 0.000, 0.000, 0.000, 11:06:08.592, 1561475168592
252, -37384.12, 0.00, 0.00, 0.00, 0.00, 0.00, 0.00, 0.00, 0.000, 0.000, 0.000, 11:06:08.592, 1561475168592
253, -36793.92, 0.00, 0.00, 0.00, 0.00, 0.00, 0.00, 0.00, 0.000, 0.000, 0.000, 11:06:08.592, 1561475168592
254, -36561.53, 0.00, 0.00, 0.00, 0.00, 0.00, 0.00, 0.00, 0.000, 0.000, 0.000, 11:06:08.592, 1561475168592
255, -37127.74, 0.00, 0.00, 0.00, 0.00, 0.00, 0.00, 0.00, 0.000, 0.000, 0.000, 11:06:08.592, 1561475168592
0, -37420.35, 0.00, 0.00, 0.00, 0.00, 0.00, 0.00, 0.00, 0.000, 0.000, 0.000, 11:06:08.593, 1561475168593
1, -36889.00, 0.00, 0.00, 0.00, 0.00, 0.00, 0.00, 0.00, 0.000, 0.000, 0.000, 11:06:08.593, 1561475168593
2, -36511.91, 0.00, 0.00, 0.00, 0.00, 0.00, 0.00, 0.00, 0.000, 0.000, 0.000, 11:06:08.593, 1561475168593
3, -36991.67, 0.00, 0.00, 0.00, 0.00, 0.00, 0.00, 0.00, 0.000, 0.000, 0.000, 11:06:08.593, 1561475168593
4, -37411.25, 0.00, 0.00, 0.00, 0.00, 0.00, 0.00, 0.00, 0.088, -0.048, 1.030, 11:06:08.593, 1561475168593
5, -36974.28, 0.00, 0.00, 0.00, 0.00, 0.00, 0.00, 0.00, 0.000, 0.000, 0.000, 11:06:08.593, 1561475168593
6, -36491.70, 0.00, 0.00, 0.00, 0.00, 0.00, 0.00, 0.00, 0.000, 0.000, 0.000, 11:06:08.593, 1561475168593
7, -36844.97, 0.00, 0.00, 0.00, 0.00, 0.00, 0.00, 0.00, 0.000, 0.000, 0.000, 11:06:08.593, 1561475168593
8, -37355.62, 0.00, 0.00, 0.00, 0.00, 0.00, 0.00, 0.00, 0.000, 0.000, 0.000, 11:06:08.593, 1561475168593
9, -37053.29, 0.00, 0.00, 0.00, 0.00, 0.00, 0.00, 0.00, 0.000, 0.000, 0.000, 11:06:08.593, 1561475168593
10, -36497.40, 0.00, 0.00, 0.00, 0.00, 0.00, 0.00, 0.00, 0.000, 0.000, 0.000, 11:06:08.593, 1561475168593
11, -36739.43, 0.00, 0.00, 0.00, 0.00, 0.00, 0.00, 0.00, 0.000, 0.000, 0.000, 11:06:08.593, 1561475168593
12, -37304.59, 0.00, 0.00, 0.00, 0.00, 0.00, 0.00, 0.00, 0.000, 0.000, 0.000, 11:06:08.593, 1561475168593
13, -37126.29, 0.00, 0.00, 0.00, 0.00, 0.00, 0.00, 0.00, 0.000, 0.000, 0.000, 11:06:08.593, 1561475168593
14, -36530.48, 0.00, 0.00, 0.00, 0.00, 0.00, 0.00, 0.00, 0.086, -0.048, 1.036, 11:06:08.593, 1561475168593
15, -36635.40, 0.00, 0.00, 0.00, 0.00, 0.00, 0.00, 0.00, 0.000, 0.000, 0.000, 11:06:08.594, 1561475168594
16, -37247.30, 0.00, 0.00, 0.00, 0.00, 0.00, 0.00, 0.00, 0.000, 0.000, 0.000, 11:06:08.594, 1561475168594
17, -37222.56, 0.00, 0.00, 0.00, 0.00, 0.00, 0.00, 0.00, 0.000, 0.000, 0.000, 11:06:08.594, 1561475168594
18, -36616.85, 0.00, 0.00, 0.00, 0.00, 0.00, 0.00, 0.00, 0.000, 0.000, 0.000, 11:06:08.595, 1561475168595
19, -36565.31, 0.00, 0.00, 0.00, 0.00, 0.00, 0.00, 0.00, 0.000, 0.000, 0.000, 11:06:08.595, 1561475168595
20, -37167.69, 0.00, 0.00, 0.00, 0.00, 0.00, 0.00, 0.00, 0.000, 0.000, 0.000, 11:06:08.595, 1561475168595
21, -37301.95, 0.00, 0.00, 0.00, 0.00, 0.00, 0.00, 0.00, 0.000, 0.000, 0.000, 11:06:08.595, 1561475168595
22, -36702.37, 0.00, 0.00, 0.00, 0.00, 0.00, 0.00, 0.00, 0.000, 0.000, 0.000, 11:06:08.595, 1561475168595
23, -36462.69, 0.00, 0.00, 0.00, 0.00, 0.00, 0.00, 0.00, 0.000, 0.000, 0.000, 11:06:08.595, 1561475168595
24, -37004.88, 0.00, 0.00, 0.00, 0.00, 0.00, 0.00, 0.00, 0.086, -0.050, 1.032, 11:06:08.595, 1561475168595
25, -37294.09, 0.00, 0.00, 0.00, 0.00, 0.00, 0.00, 0.00, 0.000, 0.000, 0.000, 11:06:08.595, 1561475168595
26, -36774.70, 0.00, 0.00, 0.00, 0.00, 0.00, 0.00, 0.00, 0.000, 0.000, 0.000, 11:06:08.595, 1561475168595
27, -36411.04, 0.00, 0.00, 0.00, 0.00, 0.00, 0.00, 0.00, 0.000, 0.000, 0.000, 11:06:08.595, 1561475168595
28, -36903.38, 0.00, 0.00, 0.00, 0.00, 0.00, 0.00, 0.00, 0.000, 0.000, 0.000, 11:06:08.595, 1561475168595
29, -37370.59, 0.00, 0.00, 0.00, 0.00, 0.00, 0.00, 0.00, 0.000, 0.000, 0.000, 11:06:08.595, 1561475168595
30, -36944.77, 0.00, 0.00, 0.00, 0.00, 0.00, 0.00, 0.00, 0.000, 0.000, 0.000, 11:06:08.596, 1561475168596
31, -36476.05, 0.00, 0.00, 0.00, 0.00, 0.00, 0.00, 0.00, 0.000, 0.000, 0.000, 11:06:08.596, 1561475168596
32, -36850.47, 0.00, 0.00, 0.00, 0.00, 0.00, 0.00, 0.00, 0.000, 0.000, 0.000, 11:06:08.596, 1561475168596
33, -37362.64, 0.00, 0.00, 0.00, 0.00, 0.00, 0.00, 0.00, 0.000, 0.000, 0.000, 11:06:08.596, 1561475168596
34, -37025.08, 0.00, 0.00, 0.00, 0.00, 0.00, 0.00, 0.00, 0.082, -0.046, 1.032, 11:06:08.596, 1561475168596
35, -36439.64, 0.00, 0.00, 0.00, 0.00, 0.00, 0.00, 0.00, 0.000, 0.000, 0.000, 11:06:08.596, 1561475168596
36, -36672.15, 0.00, 0.00, 0.00, 0.00, 0.00, 0.00, 0.00, 0.000, 0.000, 0.000, 11:06:08.596, 1561475168596
37, -37285.99, 0.00, 0.00, 0.00, 0.00, 0.00, 0.00, 0.00, 0.000, 0.000, 0.000, 11:06:08.596, 1561475168596
38, -37124.39, 0.00, 0.00, 0.00, 0.00, 0.00, 0.00, 0.00, 0.000, 0.000, 0.000, 11:06:08.596, 1561475168596
39, -36509.32, 0.00, 0.00, 0.00, 0.00, 0.00, 0.00, 0.00, 0.000, 0.000, 0.000, 11:06:08.596, 1561475168596
40, -36597.98, 0.00, 0.00, 0.00, 0.00, 0.00, 0.00, 0.00, 0.000, 0.000, 0.000, 11:06:08.596, 1561475168596
41, -37237.49, 0.00, 0.00, 0.00, 0.00, 0.00, 0.00, 0.00, 0.000, 0.000, 0.000, 11:06:08.596, 1561475168596
42, -37209.37, 0.00, 0.00, 0.00, 0.00, 0.00, 0.00, 0.00, 0.000, 0.000, 0.000, 11:06:08.597, 1561475168597
43, -36580.55, 0.00, 0.00, 0.00, 0.00, 0.00, 0.00, 0.00, 0.000, 0.000, 0.000, 11:06:08.597, 1561475168597
44, -36515.39, 0.00, 0.00, 0.00, 0.00, 0.00, 0.00, 0.00, 0.092, -0.050, 1.040, 11:06:08.597, 1561475168597
45, -37145.43, 0.00, 0.00, 0.00, 0.00, 0.00, 0.00, 0.00, 0.000, 0.000, 0.000, 11:06:08.597, 1561475168597
46, -37272.38, 0.00, 0.00, 0.00, 0.00, 0.00, 0.00, 0.00, 0.000, 0.000, 0.000, 11:06:08.597, 1561475168597
47, -36694.19, 0.00, 0.00, 0.00, 0.00, 0.00, 0.00, 0.00, 0.000, 0.000, 0.000, 11:06:08.597, 1561475168597
48, -36463.16, 0.00, 0.00, 0.00, 0.00, 0.00, 0.00, 0.00, 0.000, 0.000, 0.000, 11:06:08.597, 1561475168597
49, -37034.70, 0.00, 0.00, 0.00, 0.00, 0.00, 0.00, 0.00, 0.000, 0.000, 0.000, 11:06:08.597, 1561475168597
50, -37300.01, 0.00, 0.00, 0.00, 0.00, 0.00, 0.00, 0.00, 0.000, 0.000, 0.000, 11:06:08.597, 1561475168597
51, -36730.08, 0.00, 0.00, 0.00, 0.00, 0.00, 0.00, 0.00, 0.000, 0.000, 0.000, 11:06:08.597, 1561475168597
52, -36358.38, 0.00, 0.00, 0.00, 0.00, 0.00, 0.00, 0.00, 0.000, 0.000, 0.000, 11:06:08.597, 1561475168597
53, -36870.39, 0.00, 0.00, 0.00, 0.00, 0.00, 0.00, 0.00, 0.000, 0.000, 0.000, 11:06:08.597, 1561475168597
54, -37303.70, 0.00, 0.00, 0.00, 0.00, 0.00, 0.00, 0.00, 0.000, 0.000, 0.000, 11:06:08.598, 1561475168598
55, -36878.32, 0.00, 0.00, 0.00, 0.00, 0.00, 0.00, 0.00, 0.086, -0.048, 1.034, 11:06:08.598, 1561475168598
56, -36402.25, 0.00, 0.00, 0.00, 0.00, 0.00, 0.00, 0.00, 0.000, 0.000, 0.000, 11:06:08.598, 1561475168598
57, -36785.88, 0.00, 0.00, 0.00, 0.00, 0.00, 0.00, 0.00, 0.000, 0.000, 0.000, 11:06:08.598, 1561475168598
58, -37323.41, 0.00, 0.00, 0.00, 0.00, 0.00, 0.00, 0.00, 0.000, 0.000, 0.000, 11:06:08.598, 1561475168598
59, -37034.40, 0.00, 0.00, 0.00, 0.00, 0.00, 0.00, 0.00, 0.000, 0.000, 0.000, 11:06:08.598, 1561475168598
60, -36457.68, 0.00, 0.00, 0.00, 0.00, 0.00, 0.00, 0.00, 0.000, 0.000, 0.000, 11:06:08.598, 1561475168598
61, -36683.50, 0.00, 0.00, 0.00, 0.00, 0.00, 0.00, 0.00, 0.000, 0.000, 0.000, 11:06:08.598, 1561475168598
62, -37275.24, 0.00, 0.00, 0.00, 0.00, 0.00, 0.00, 0.00, 0.000, 0.000, 0.000, 11:06:08.598, 1561475168598
63, -37106.75, 0.00, 0.00, 0.00, 0.00, 0.00, 0.00, 0.00, 0.000, 0.000, 0.000, 11:06:08.598, 1561475168598
64, -36465.44, 0.00, 0.00, 0.00, 0.00, 0.00, 0.00, 0.00, 0.000, 0.000, 0.000, 11:06:08.598, 1561475168598
65, -36538.82, 0.00, 0.00, 0.00, 0.00, 0.00, 0.00, 0.00, 0.090, -0.050, 1.040, 11:06:08.598, 1561475168598
66, -37179.58, 0.00, 0.00, 0.00, 0.00, 0.00, 0.00, 0.00, 0.000, 0.000, 0.000, 11:06:08.598, 1561475168598
67, -37171.22, 0.00, 0.00, 0.00, 0.00, 0.00, 0.00, 0.00, 0.000, 0.000, 0.000, 11:06:08.600, 1561475168600
68, -36555.90, 0.00, 0.00, 0.00, 0.00, 0.00, 0.00, 0.00, 0.000, 0.000, 0.000, 11:06:08.601, 1561475168601
69, -36461.19, 0.00, 0.00, 0.00, 0.00, 0.00, 0.00, 0.00, 0.000, 0.000, 0.000, 11:06:08.601, 1561475168601
70, -37047.88, 0.00, 0.00, 0.00, 0.00, 0.00, 0.00, 0.00, 0.000, 0.000, 0.000, 11:06:08.601, 1561475168601
71, -37215.25, 0.00, 0.00, 0.00, 0.00, 0.00, 0.00, 0.00, 0.000, 0.000, 0.000, 11:06:08.601, 1561475168601
72, -36651.72, 0.00, 0.00, 0.00, 0.00, 0.00, 0.00, 0.00, 0.000, 0.000, 0.000, 11:06:08.601, 1561475168601
73, -36450.69, 0.00, 0.00, 0.00, 0.00, 0.00, 0.00, 0.00, 0.000, 0.000, 0.000, 11:06:08.601, 1561475168601
74, -37009.61, 0.00, 0.00, 0.00, 0.00, 0.00, 0.00, 0.00, 0.000, 0.000, 0.000, 11:06:09.069, 1561475169069
75, -37264.67, 0.00, 0.00, 0.00, 0.00, 0.00, 0.00, 0.00, 0.086, -0.058, 1.040, 11:06:09.069, 1561475169069
76, -36729.93, 0.00, 0.00, 0.00, 0.00, 0.00, 0.00, 0.00, 0.000, 0.000, 0.000, 11:06:09.069, 1561475169069
77, -36400.35, 0.00, 0.00, 0.00, 0.00, 0.00, 0.00, 0.00, 0.000, 0.000, 0.000, 11:06:09.069, 1561475169069
78, -36883.02, 0.00, 0.00, 0.00, 0.00, 0.00, 0.00, 0.00, 0.000, 0.000, 0.000, 11:06:09.069, 1561475169069
79, -37306.09, 0.00, 0.00, 0.00, 0.00, 0.00, 0.00, 0.00, 0.000, 0.000, 0.000, 11:06:09.069, 1561475169069
80, -36850.07, 0.00, 0.00, 0.00, 0.00, 0.00, 0.00, 0.00, 0.000, 0.000, 0.000, 11:06:09.069, 1561475169069
81, -36367.05, 0.00, 0.00, 0.00, 0.00, 0.00, 0.00, 0.00, 0.000, 0.000, 0.000, 11:06:09.069, 1561475169069
82, -36747.74, 0.00, 0.00, 0.00, 0.00, 0.00, 0.00, 0.00, 0.000, 0.000, 0.000, 11:06:09.069, 1561475169069
83, -37269.43, 0.00, 0.00, 0.00, 0.00, 0.00, 0.00, 0.00, 0.000, 0.000, 0.000, 11:06:09.069, 1561475169069
84, -36964.42, 0.00, 0.00, 0.00, 0.00, 0.00, 0.00, 0.00, 0.000, 0.000, 0.000, 11:06:09.069, 1561475169069
85, -36409.83, 0.00, 0.00, 0.00, 0.00, 0.00, 0.00, 0.00, 0.092, -0.054, 1.030, 11:06:09.069, 1561475169069
86, -36669.20, 0.00, 0.00, 0.00, 0.00, 0.00, 0.00, 0.00, 0.000, 0.000, 0.000, 11:06:09.069, 1561475169069
87, -37265.99, 0.00, 0.00, 0.00, 0.00, 0.00, 0.00, 0.00, 0.000, 0.000, 0.000, 11:06:09.069, 1561475169069
88, -37097.82, 0.00, 0.00, 0.00, 0.00, 0.00, 0.00, 0.00, 0.000, 0.000, 0.000, 11:06:09.069, 1561475169069
89, -36466.78, 0.00, 0.00, 0.00, 0.00, 0.00, 0.00, 0.00, 0.000, 0.000, 0.000, 11:06:09.069, 1561475169069
90, -36558.09, 0.00, 0.00, 0.00, 0.00, 0.00, 0.00, 0.00, 0.000, 0.000, 0.000, 11:06:09.069, 1561475169069
91, -37183.11, 0.00, 0.00, 0.00, 0.00, 0.00, 0.00, 0.00, 0.000, 0.000, 0.000, 11:06:09.069, 1561475169069
92, -37162.37, 0.00, 0.00, 0.00, 0.00, 0.00, 0.00, 0.00, 0.000, 0.000, 0.000, 11:06:09.069, 1561475169069
93, -36535.49, 0.00, 0.00, 0.00, 0.00, 0.00, 0.00, 0.00, 0.000, 0.000, 0.000, 11:06:09.069, 1561475169069
94, -36476.08, 0.00, 0.00, 0.00, 0.00, 0.00, 0.00, 0.00, 0.000, 0.000, 0.000, 11:06:09.069, 1561475169069
95, -37067.08, 0.00, 0.00, 0.00, 0.00, 0.00, 0.00, 0.00, 0.092, -0.052, 1.036, 11:06:09.069, 1561475169069
96, -37185.12, 0.00, 0.00, 0.00, 0.00, 0.00, 0.00, 0.00, 0.000, 0.000, 0.000, 11:06:09.069, 1561475169069
97, -36601.56, 0.00, 0.00, 0.00, 0.00, 0.00, 0.00, 0.00, 0.000, 0.000, 0.000, 11:06:09.069, 1561475169069
98, -36395.21, 0.00, 0.00, 0.00, 0.00, 0.00, 0.00, 0.00, 0.000, 0.000, 0.000, 11:06:09.070, 1561475169070
99, -36985.92, 0.00, 0.00, 0.00, 0.00, 0.00, 0.00, 0.00, 0.000, 0.000, 0.000, 11:06:09.070, 1561475169070
100, -37292.01, 0.00, 0.00, 0.00, 0.00, 0.00, 0.00, 0.00, 0.000, 0.000, 0.000, 11:06:09.070, 1561475169070
101, -36767.55, 0.00, 0.00, 0.00, 0.00, 0.00, 0.00, 0.00, 0.000, 0.000, 0.000, 11:06:09.070, 1561475169070
102, -36387.66, 0.00, 0.00, 0.00, 0.00, 0.00, 0.00, 0.00, 0.000, 0.000, 0.000, 11:06:09.070, 1561475169070
103, -36870.92, 0.00, 0.00, 0.00, 0.00, 0.00, 0.00, 0.00, 0.000, 0.000, 0.000, 11:06:09.070, 1561475169070
104, -37291.85, 0.00, 0.00, 0.00, 0.00, 0.00, 0.00, 0.00, 0.000, 0.000, 0.000, 11:06:09.070, 1561475169070
105, -36846.49, 0.00, 0.00, 0.00, 0.00, 0.00, 0.00, 0.00, 0.086, -0.052, 1.034, 11:06:09.070, 1561475169070
106, -36335.71, 0.00, 0.00, 0.00, 0.00, 0.00, 0.00, 0.00, 0.000, 0.000, 0.000, 11:06:09.070, 1561475169070
107, -36702.66, 0.00, 0.00, 0.00, 0.00, 0.00, 0.00, 0.00, 0.000, 0.000, 0.000, 11:06:09.070, 1561475169070
108, -37249.76, 0.00, 0.00, 0.00, 0.00, 0.00, 0.00, 0.00, 0.000, 0.000, 0.000, 11:06:09.070, 1561475169070
109, -36975.06, 0.00, 0.00, 0.00, 0.00, 0.00, 0.00, 0.00, 0.000, 0.000, 0.000, 11:06:09.070, 1561475169070
110, -36405.52, 0.00, 0.00, 0.00, 0.00, 0.00, 0.00, 0.00, 0.000, 0.000, 0.000, 11:06:09.070, 1561475169070
111, -36635.58, 0.00, 0.00, 0.00, 0.00, 0.00, 0.00, 0.00, 0.000, 0.000, 0.000, 11:06:09.071, 1561475169071
112, -37216.68, 0.00, 0.00, 0.00, 0.00, 0.00, 0.00, 0.00, 0.000, 0.000, 0.000, 11:06:09.071, 1561475169071
113, -37061.47, 0.00, 0.00, 0.00, 0.00, 0.00, 0.00, 0.00, 0.000, 0.000, 0.000, 11:06:09.071, 1561475169071
114, -36455.07, 0.00, 0.00, 0.00, 0.00, 0.00, 0.00, 0.00, 0.000, 0.000, 0.000, 11:06:09.071, 1561475169071
115, -36556.23, 0.00, 0.00, 0.00, 0.00, 0.00, 0.00, 0.00, 0.000, 0.000, 0.000, 11:06:09.071, 1561475169071
116, -37188.41, 0.00, 0.00, 0.00, 0.00, 0.00, 0.00, 0.00, 0.090, -0.056, 1.032, 11:06:09.072, 1561475169072
117, -37171.40, 0.00, 0.00, 0.00, 0.00, 0.00, 0.00, 0.00, 0.000, 0.000, 0.000, 11:06:09.072, 1561475169072
118, -36536.74, 0.00, 0.00, 0.00, 0.00, 0.00, 0.00, 0.00, 0.000, 0.000, 0.000, 11:06:09.072, 1561475169072
119, -36485.89, 0.00, 0.00, 0.00, 0.00, 0.00, 0.00, 0.00, 0.000, 0.000, 0.000, 11:06:09.072, 1561475169072
120, -37081.14, 0.00, 0.00, 0.00, 0.00, 0.00, 0.00, 0.00, 0.000, 0.000, 0.000, 11:06:09.072, 1561475169072
121, -37220.75, 0.00, 0.00, 0.00, 0.00, 0.00, 0.00, 0.00, 0.000, 0.000, 0.000, 11:06:09.072, 1561475169072
122, -36639.96, 0.00, 0.00, 0.00, 0.00, 0.00, 0.00, 0.00, 0.000, 0.000, 0.000, 11:06:09.072, 1561475169072
123, -36423.02, 0.00, 0.00, 0.00, 0.00, 0.00, 0.00, 0.00, 0.000, 0.000, 0.000, 11:06:09.072, 1561475169072
124, -37007.47, 0.00, 0.00, 0.00, 0.00, 0.00, 0.00, 0.00, 0.000, 0.000, 0.000, 11:06:09.072, 1561475169072
125, -37301.17, 0.00, 0.00, 0.00, 0.00, 0.00, 0.00, 0.00, 0.000, 0.000, 0.000, 11:06:09.072, 1561475169072
126, -36762.00, 0.00, 0.00, 0.00, 0.00, 0.00, 0.00, 0.00, 0.086, -0.054, 1.030, 11:06:09.072, 1561475169072
127, -36368.54, 0.00, 0.00, 0.00, 0.00, 0.00, 0.00, 0.00, 0.000, 0.000, 0.000, 11:06:09.072, 1561475169072
128, -36851.19, 0.00, 0.00, 0.00, 0.00, 0.00, 0.00, 0.00, 0.000, 0.000, 0.000, 11:06:09.072, 1561475169072
129, -37294.76, 0.00, 0.00, 0.00, 0.00, 0.00, 0.00, 0.00, 0.000, 0.000, 0.000, 11:06:09.072, 1561475169072
130, -36867.12, 0.00, 0.00, 0.00, 0.00, 0.00, 0.00, 0.00, 0.000, 0.000, 0.000, 11:06:09.072, 1561475169072
131, -36361.64, 0.00, 0.00, 0.00, 0.00, 0.00, 0.00, 0.00, 0.000, 0.000, 0.000, 11:06:09.072, 1561475169072
132, -36753.66, 0.00, 0.00, 0.00, 0.00, 0.00, 0.00, 0.00, 0.000, 0.000, 0.000, 11:06:09.073, 1561475169073
133, -37300.57, 0.00, 0.00, 0.00, 0.00, 0.00, 0.00, 0.00, 0.000, 0.000, 0.000, 11:06:09.073, 1561475169073
134, -36980.20, 0.00, 0.00, 0.00, 0.00, 0.00, 0.00, 0.00, 0.000, 0.000, 0.000, 11:06:09.073, 1561475169073
135, -36420.76, 0.00, 0.00, 0.00, 0.00, 0.00, 0.00, 0.00, 0.000, 0.000, 0.000, 11:06:09.073, 1561475169073
136, -36671.30, 0.00, 0.00, 0.00, 0.00, 0.00, 0.00, 0.00, 0.090, -0.050, 1.034, 11:06:09.073, 1561475169073
137, -37240.82, 0.00, 0.00, 0.00, 0.00, 0.00, 0.00, 0.00, 0.000, 0.000, 0.000, 11:06:09.073, 1561475169073
138, -37056.73, 0.00, 0.00, 0.00, 0.00, 0.00, 0.00, 0.00, 0.000, 0.000, 0.000, 11:06:09.073, 1561475169073
139, -36460.79, 0.00, 0.00, 0.00, 0.00, 0.00, 0.00, 0.00, 0.000, 0.000, 0.000, 11:06:09.073, 1561475169073
140, -36568.44, 0.00, 0.00, 0.00, 0.00, 0.00, 0.00, 0.00, 0.000, 0.000, 0.000, 11:06:09.073, 1561475169073
141, -37180.74, 0.00, 0.00, 0.00, 0.00, 0.00, 0.00, 0.00, 0.000, 0.000, 0.000, 11:06:09.073, 1561475169073
142, -37141.07, 0.00, 0.00, 0.00, 0.00, 0.00, 0.00, 0.00, 0.000, 0.000, 0.000, 11:06:09.073, 1561475169073
143, -36528.02, 0.00, 0.00, 0.00, 0.00, 0.00, 0.00, 0.00, 0.000, 0.000, 0.000, 11:06:09.073, 1561475169073
144, -36477.98, 0.00, 0.00, 0.00, 0.00, 0.00, 0.00, 0.00, 0.000, 0.000, 0.000, 11:06:09.073, 1561475169073
145, -37079.53, 0.00, 0.00, 0.00, 0.00, 0.00, 0.00, 0.00, 0.000, 0.000, 0.000, 11:06:09.073, 1561475169073
146, -37212.61, 0.00, 0.00, 0.00, 0.00, 0.00, 0.00, 0.00, 0.090, -0.048, 1.030, 11:06:09.073, 1561475169073
147, -36616.18, 0.00, 0.00, 0.00, 0.00, 0.00, 0.00, 0.00, 0.000, 0.000, 0.000, 11:06:09.073, 1561475169073
148, -36402.09, 0.00, 0.00, 0.00, 0.00, 0.00, 0.00, 0.00, 0.000, 0.000, 0.000, 11:06:09.073, 1561475169073
149, -36991.18, 0.00, 0.00, 0.00, 0.00, 0.00, 0.00, 0.00, 0.000, 0.000, 0.000, 11:06:09.074, 1561475169074
150, -37291.18, 0.00, 0.00, 0.00, 0.00, 0.00, 0.00, 0.00, 0.000, 0.000, 0.000, 11:06:09.074, 1561475169074
151, -36772.44, 0.00, 0.00, 0.00, 0.00, 0.00, 0.00, 0.00, 0.000, 0.000, 0.000, 11:06:09.074, 1561475169074
152, -36397.91, 0.00, 0.00, 0.00, 0.00, 0.00, 0.00, 0.00, 0.000, 0.000, 0.000, 11:06:09.074, 1561475169074
153, -36872.40, 0.00, 0.00, 0.00, 0.00, 0.00, 0.00, 0.00, 0.000, 0.000, 0.000, 11:06:09.074, 1561475169074
154, -37287.71, 0.00, 0.00, 0.00, 0.00, 0.00, 0.00, 0.00, 0.000, 0.000, 0.000, 11:06:09.074, 1561475169074
155, -36843.88, 0.00, 0.00, 0.00, 0.00, 0.00, 0.00, 0.00, 0.000, 0.000, 0.000, 11:06:09.074, 1561475169074
156, -36368.99, 0.00, 0.00, 0.00, 0.00, 0.00, 0.00, 0.00, 0.086, -0.046, 1.034, 11:06:09.074, 1561475169074
157, -36757.33, 0.00, 0.00, 0.00, 0.00, 0.00, 0.00, 0.00, 0.000, 0.000, 0.000, 11:06:09.074, 1561475169074
158, -37260.42, 0.00, 0.00, 0.00, 0.00, 0.00, 0.00, 0.00, 0.000, 0.000, 0.000, 11:06:09.074, 1561475169074
159, -36934.87, 0.00, 0.00, 0.00, 0.00, 0.00, 0.00, 0.00, 0.000, 0.000, 0.000, 11:06:09.074, 1561475169074
160, -36402.52, 0.00, 0.00, 0.00, 0.00, 0.00, 0.00, 0.00, 0.000, 0.000, 0.000, 11:06:09.074, 1561475169074
161, -36668.37, 0.00, 0.00, 0.00, 0.00, 0.00, 0.00, 0.00, 0.000, 0.000, 0.000, 11:06:09.074, 1561475169074
162, -37268.79, 0.00, 0.00, 0.00, 0.00, 0.00, 0.00, 0.00, 0.000, 0.000, 0.000, 11:06:09.074, 1561475169074
163, -37086.59, 0.00, 0.00, 0.00, 0.00, 0.00, 0.00, 0.00, 0.000, 0.000, 0.000, 11:06:09.074, 1561475169074
164, -36454.11, 0.00, 0.00, 0.00, 0.00, 0.00, 0.00, 0.00, 0.000, 0.000, 0.000, 11:06:09.074, 1561475169074
165, -36557.42, 0.00, 0.00, 0.00, 0.00, 0.00, 0.00, 0.00, 0.000, 0.000, 0.000, 11:06:09.074, 1561475169074
166, -37170.93, 0.00, 0.00, 0.00, 0.00, 0.00, 0.00, 0.00, 0.092, -0.050, 1.034, 11:06:09.075, 1561475169075
167, -37130.58, 0.00, 0.00, 0.00, 0.00, 0.00, 0.00, 0.00, 0.000, 0.000, 0.000, 11:06:09.075, 1561475169075
168, -36513.68, 0.00, 0.00, 0.00, 0.00, 0.00, 0.00, 0.00, 0.000, 0.000, 0.000, 11:06:09.075, 1561475169075
169, -36463.56, 0.00, 0.00, 0.00, 0.00, 0.00, 0.00, 0.00, 0.000, 0.000, 0.000, 11:06:09.075, 1561475169075
170, -37112.12, 0.00, 0.00, 0.00, 0.00, 0.00, 0.00, 0.00, 0.000, 0.000, 0.000, 11:06:09.075, 1561475169075
171, -37241.04, 0.00, 0.00, 0.00, 0.00, 0.00, 0.00, 0.00, 0.000, 0.000, 0.000, 11:06:09.075, 1561475169075
172, -36619.06, 0.00, 0.00, 0.00, 0.00, 0.00, 0.00, 0.00, 0.000, 0.000, 0.000, 11:06:09.075, 1561475169075
173, -36400.73, 0.00, 0.00, 0.00, 0.00, 0.00, 0.00, 0.00, 0.000, 0.000, 0.000, 11:06:09.075, 1561475169075
174, -36963.88, 0.00, 0.00, 0.00, 0.00, 0.00, 0.00, 0.00, 0.000, 0.000, 0.000, 11:06:09.075, 1561475169075
175, -37241.74, 0.00, 0.00, 0.00, 0.00, 0.00, 0.00, 0.00, 0.000, 0.000, 0.000, 11:06:09.075, 1561475169075
176, -36715.02, 0.00, 0.00, 0.00, 0.00, 0.00, 0.00, 0.00, 0.000, 0.000, 0.000, 11:06:09.075, 1561475169075
177, -36390.07, 0.00, 0.00, 0.00, 0.00, 0.00, 0.00, 0.00, 0.086, -0.050, 1.036, 11:06:09.075, 1561475169075
178, -36877.98, 0.00, 0.00, 0.00, 0.00, 0.00, 0.00, 0.00, 0.000, 0.000, 0.000, 11:06:09.075, 1561475169075
179, -37289.41, 0.00, 0.00, 0.00, 0.00, 0.00, 0.00, 0.00, 0.000, 0.000, 0.000, 11:06:09.075, 1561475169075
180, -36842.36, 0.00, 0.00, 0.00, 0.00, 0.00, 0.00, 0.00, 0.000, 0.000, 0.000, 11:06:09.075, 1561475169075
181, -36389.11, 0.00, 0.00, 0.00, 0.00, 0.00, 0.00, 0.00, 0.000, 0.000, 0.000, 11:06:09.075, 1561475169075
182, -36780.62, 0.00, 0.00, 0.00, 0.00, 0.00, 0.00, 0.00, 0.000, 0.000, 0.000, 11:06:09.075, 1561475169075
183, -37291.27, 0.00, 0.00, 0.00, 0.00, 0.00, 0.00, 0.00, 0.000, 0.000, 0.000, 11:06:09.076, 1561475169076
184, -36956.20, 0.00, 0.00, 0.00, 0.00, 0.00, 0.00, 0.00, 0.000, 0.000, 0.000, 11:06:09.076, 1561475169076
185, -36376.21, 0.00, 0.00, 0.00, 0.00, 0.00, 0.00, 0.00, 0.000, 0.000, 0.000, 11:06:09.076, 1561475169076
186, -36625.37, 0.00, 0.00, 0.00, 0.00, 0.00, 0.00, 0.00, 0.000, 0.000, 0.000, 11:06:09.076, 1561475169076
187, -37218.96, 0.00, 0.00, 0.00, 0.00, 0.00, 0.00, 0.00, 0.090, -0.050, 1.036, 11:06:09.076, 1561475169076
188, -37040.24, 0.00, 0.00, 0.00, 0.00, 0.00, 0.00, 0.00, 0.000, 0.000, 0.000, 11:06:09.076, 1561475169076
189, -36448.74, 0.00, 0.00, 0.00, 0.00, 0.00, 0.00, 0.00, 0.000, 0.000, 0.000, 11:06:09.076, 1561475169076
190, -36541.50, 0.00, 0.00, 0.00, 0.00, 0.00, 0.00, 0.00, 0.000, 0.000, 0.000, 11:06:09.076, 1561475169076
191, -37127.61, 0.00, 0.00, 0.00, 0.00, 0.00, 0.00, 0.00, 0.000, 0.000, 0.000, 11:06:09.076, 1561475169076
192, -37128.23, 0.00, 0.00, 0.00, 0.00, 0.00, 0.00, 0.00, 0.000, 0.000, 0.000, 11:06:09.076, 1561475169076
193, -36554.29, 0.00, 0.00, 0.00, 0.00, 0.00, 0.00, 0.00, 0.000, 0.000, 0.000, 11:06:09.076, 1561475169076
194, -36510.05, 0.00, 0.00, 0.00, 0.00, 0.00, 0.00, 0.00, 0.000, 0.000, 0.000, 11:06:09.550, 1561475169550
195, -37124.55, 0.00, 0.00, 0.00, 0.00, 0.00, 0.00, 0.00, 0.000, 0.000, 0.000, 11:06:09.550, 1561475169550
196, -37226.63, 0.00, 0.00, 0.00, 0.00, 0.00, 0.00, 0.00, 0.000, 0.000, 0.000, 11:06:09.550, 1561475169550
197, -36612.52, 0.00, 0.00, 0.00, 0.00, 0.00, 0.00, 0.00, 0.086, -0.052, 1.030, 11:06:09.550, 1561475169550
198, -36395.48, 0.00, 0.00, 0.00, 0.00, 0.00, 0.00, 0.00, 0.000, 0.000, 0.000, 11:06:09.550, 1561475169550
199, -36955.34, 0.00, 0.00, 0.00, 0.00, 0.00, 0.00, 0.00, 0.000, 0.000, 0.000, 11:06:09.550, 1561475169550
200, -37238.30, 0.00, 0.00, 0.00, 0.00, 0.00, 0.00, 0.00, 0.000, 0.000, 0.000, 11:06:09.550, 1561475169550
201, -36701.34, 0.00, 0.00, 0.00, 0.00, 0.00, 0.00, 0.00, 0.000, 0.000, 0.000, 11:06:09.550, 1561475169550
202, -36361.32, 0.00, 0.00, 0.00, 0.00, 0.00, 0.00, 0.00, 0.000, 0.000, 0.000, 11:06:09.550, 1561475169550
203, -36864.13, 0.00, 0.00, 0.00, 0.00, 0.00, 0.00, 0.00, 0.000, 0.000, 0.000, 11:06:09.550, 1561475169550
204, -37288.09, 0.00, 0.00, 0.00, 0.00, 0.00, 0.00, 0.00, 0.000, 0.000, 0.000, 11:06:09.551, 1561475169551
205, -36838.27, 0.00, 0.00, 0.00, 0.00, 0.00, 0.00, 0.00, 0.000, 0.000, 0.000, 11:06:09.551, 1561475169551
206, -36349.48, 0.00, 0.00, 0.00, 0.00, 0.00, 0.00, 0.00, 0.000, 0.000, 0.000, 11:06:09.551, 1561475169551
207, -36733.55, 0.00, 0.00, 0.00, 0.00, 0.00, 0.00, 0.00, 0.086, -0.054, 1.028, 11:06:09.551, 1561475169551
208, -37286.11, 0.00, 0.00, 0.00, 0.00, 0.00, 0.00, 0.00, 0.000, 0.000, 0.000, 11:06:09.551, 1561475169551
209, -36971.39, 0.00, 0.00, 0.00, 0.00, 0.00, 0.00, 0.00, 0.000, 0.000, 0.000, 11:06:09.551, 1561475169551
210, -36403.97, 0.00, 0.00, 0.00, 0.00, 0.00, 0.00, 0.00, 0.000, 0.000, 0.000, 11:06:09.551, 1561475169551
211, -36663.88, 0.00, 0.00, 0.00, 0.00, 0.00, 0.00, 0.00, 0.000, 0.000, 0.000, 11:06:09.551, 1561475169551
212, -37246.72, 0.00, 0.00, 0.00, 0.00, 0.00, 0.00, 0.00, 0.000, 0.000, 0.000, 11:06:09.551, 1561475169551
213, -37042.36, 0.00, 0.00, 0.00, 0.00, 0.00, 0.00, 0.00, 0.000, 0.000, 0.000, 11:06:09.551, 1561475169551
214, -36408.40, 0.00, 0.00, 0.00, 0.00, 0.00, 0.00, 0.00, 0.000, 0.000, 0.000, 11:06:09.551, 1561475169551
215, -36513.29, 0.00, 0.00, 0.00, 0.00, 0.00, 0.00, 0.00, 0.000, 0.000, 0.000, 11:06:09.551, 1561475169551
216, -37146.86, 0.00, 0.00, 0.00, 0.00, 0.00, 0.00, 0.00, 0.000, 0.000, 0.000, 11:06:09.551, 1561475169551
217, -37122.09, 0.00, 0.00, 0.00, 0.00, 0.00, 0.00, 0.00, 0.088, -0.048, 1.028, 11:06:09.551, 1561475169551
218, -36507.84, 0.00, 0.00, 0.00, 0.00, 0.00, 0.00, 0.00, 0.000, 0.000, 0.000, 11:06:09.551, 1561475169551
219, -36448.56, 0.00, 0.00, 0.00, 0.00, 0.00, 0.00, 0.00, 0.000, 0.000, 0.000, 11:06:09.551, 1561475169551
220, -37079.96, 0.00, 0.00, 0.00, 0.00, 0.00, 0.00, 0.00, 0.000, 0.000, 0.000, 11:06:09.551, 1561475169551
221, -37215.50, 0.00, 0.00, 0.00, 0.00, 0.00, 0.00, 0.00, 0.000, 0.000, 0.000, 11:06:09.551, 1561475169551
222, -36627.63, 0.00, 0.00, 0.00, 0.00, 0.00, 0.00, 0.00, 0.000, 0.000, 0.000, 11:06:09.551, 1561475169551
223, -36429.68, 0.00, 0.00, 0.00, 0.00, 0.00, 0.00, 0.00, 0.000, 0.000, 0.000, 11:06:09.551, 1561475169551
224, -36989.88, 0.00, 0.00, 0.00, 0.00, 0.00, 0.00, 0.00, 0.000, 0.000, 0.000, 11:06:09.551, 1561475169551
225, -37250.70, 0.00, 0.00, 0.00, 0.00, 0.00, 0.00, 0.00, 0.000, 0.000, 0.000, 11:06:09.551, 1561475169551
226, -36689.49, 0.00, 0.00, 0.00, 0.00, 0.00, 0.00, 0.00, 0.000, 0.000, 0.000, 11:06:09.551, 1561475169551
227, -36335.15, 0.00, 0.00, 0.00, 0.00, 0.00, 0.00, 0.00, 0.000, 0.000, 0.000, 11:06:09.552, 1561475169552
228, -36870.00, 0.00, 0.00, 0.00, 0.00, 0.00, 0.00, 0.00, 0.088, -0.046, 1.026, 11:06:09.552, 1561475169552
229, -37339.46, 0.00, 0.00, 0.00, 0.00, 0.00, 0.00, 0.00, 0.000, 0.000, 0.000, 11:06:09.552, 1561475169552
230, -36887.73, 0.00, 0.00, 0.00, 0.00, 0.00, 0.00, 0.00, 0.000, 0.000, 0.000, 11:06:09.552, 1561475169552
231, -36387.75, 0.00, 0.00, 0.00, 0.00, 0.00, 0.00, 0.00, 0.000, 0.000, 0.000, 11:06:09.552, 1561475169552
232, -36739.70, 0.00, 0.00, 0.00, 0.00, 0.00, 0.00, 0.00, 0.000, 0.000, 0.000, 11:06:09.552, 1561475169552
233, -37245.25, 0.00, 0.00, 0.00, 0.00, 0.00, 0.00, 0.00, 0.000, 0.000, 0.000, 11:06:09.552, 1561475169552
234, -36938.96, 0.00, 0.00, 0.00, 0.00, 0.00, 0.00, 0.00, 0.000, 0.000, 0.000, 11:06:09.552, 1561475169552
235, -36382.85, 0.00, 0.00, 0.00, 0.00, 0.00, 0.00, 0.00, 0.000, 0.000, 0.000, 11:06:09.552, 1561475169552
236, -36641.64, 0.00, 0.00, 0.00, 0.00, 0.00, 0.00, 0.00, 0.000, 0.000, 0.000, 11:06:09.552, 1561475169552
237, -37204.12, 0.00, 0.00, 0.00, 0.00, 0.00, 0.00, 0.00, 0.000, 0.000, 0.000, 11:06:09.553, 1561475169553
238, -37020.28, 0.00, 0.00, 0.00, 0.00, 0.00, 0.00, 0.00, 0.088, -0.044, 1.028, 11:06:09.553, 1561475169553
239, -36436.36, 0.00, 0.00, 0.00, 0.00, 0.00, 0.00, 0.00, 0.000, 0.000, 0.000, 11:06:09.553, 1561475169553
240, -36540.77, 0.00, 0.00, 0.00, 0.00, 0.00, 0.00, 0.00, 0.000, 0.000, 0.000, 11:06:09.553, 1561475169553
241, -37174.66, 0.00, 0.00, 0.00, 0.00, 0.00, 0.00, 0.00, 0.000, 0.000, 0.000, 11:06:09.553, 1561475169553
242, -37176.96, 0.00, 0.00, 0.00, 0.00, 0.00, 0.00, 0.00, 0.000, 0.000, 0.000, 11:06:09.553, 1561475169553
243, -36552.14, 0.00, 0.00, 0.00, 0.00, 0.00, 0.00, 0.00, 0.000, 0.000, 0.000, 11:06:09.553, 1561475169553
244, -36482.58, 0.00, 0.00, 0.00, 0.00, 0.00, 0.00, 0.00, 0.000, 0.000, 0.000, 11:06:09.553, 1561475169553
245, -37108.95, 0.00, 0.00, 0.00, 0.00, 0.00, 0.00, 0.00, 0.000, 0.000, 0.000, 11:06:09.553, 1561475169553
246, -37239.21, 0.00, 0.00, 0.00, 0.00, 0.00, 0.00, 0.00, 0.000, 0.000, 0.000, 11:06:09.553, 1561475169553
247, -36640.72, 0.00, 0.00, 0.00, 0.00, 0.00, 0.00, 0.00, 0.000, 0.000, 0.000, 11:06:09.554, 1561475169554
248, -36408.46, 0.00, 0.00, 0.00, 0.00, 0.00, 0.00, 0.00, 0.088, -0.048, 1.030, 11:06:09.554, 1561475169554
249, -36954.03, 0.00, 0.00, 0.00, 0.00, 0.00, 0.00, 0.00, 0.000, 0.000, 0.000, 11:06:09.554, 1561475169554
250, -37250.14, 0.00, 0.00, 0.00, 0.00, 0.00, 0.00, 0.00, 0.000, 0.000, 0.000, 11:06:09.554, 1561475169554
251, -36740.90, 0.00, 0.00, 0.00, 0.00, 0.00, 0.00, 0.00, 0.000, 0.000, 0.000, 11:06:09.554, 1561475169554
252, -36369.50, 0.00, 0.00, 0.00, 0.00, 0.00, 0.00, 0.00, 0.000, 0.000, 0.000, 11:06:09.554, 1561475169554
253, -36844.28, 0.00, 0.00, 0.00, 0.00, 0.00, 0.00, 0.00, 0.000, 0.000, 0.000, 11:06:09.554, 1561475169554
254, -37267.93, 0.00, 0.00, 0.00, 0.00, 0.00, 0.00, 0.00, 0.000, 0.000, 0.000, 11:06:09.554, 1561475169554
255, -36857.58, 0.00, 0.00, 0.00, 0.00, 0.00, 0.00, 0.00, 0.000, 0.000, 0.000, 11:06:09.554, 1561475169554
0, -36368.66, 0.00, 0.00, 0.00, 0.00, 0.00, 0.00, 0.00, 0.000, 0.000, 0.000, 11:06:09.555, 1561475169555
1, -36733.21, 0.00, 0.00, 0.00, 0.00, 0.00, 0.00, 0.00, 0.000, 0.000, 0.000, 11:06:09.555, 1561475169555
2, -37277.28, 0.00, 0.00, 0.00, 0.00, 0.00, 0.00, 0.00, 0.088, -0.050, 1.026, 11:06:09.555, 1561475169555
3, -36949.80, 0.00, 0.00, 0.00, 0.00, 0.00, 0.00, 0.00, 0.000, 0.000, 0.000, 11:06:09.555, 1561475169555
4, -36387.07, 0.00, 0.00, 0.00, 0.00, 0.00, 0.00, 0.00, 0.000, 0.000, 0.000, 11:06:09.555, 1561475169555
5, -36635.04, 0.00, 0.00, 0.00, 0.00, 0.00, 0.00, 0.00, 0.000, 0.000, 0.000, 11:06:09.555, 1561475169555
6, -37193.55, 0.00, 0.00, 0.00, 0.00, 0.00, 0.00, 0.00, 0.000, 0.000, 0.000, 11:06:09.555, 1561475169555
7, -37007.13, 0.00, 0.00, 0.00, 0.00, 0.00, 0.00, 0.00, 0.000, 0.000, 0.000, 11:06:09.555, 1561475169555
8, -36438.06, 0.00, 0.00, 0.00, 0.00, 0.00, 0.00, 0.00, 0.000, 0.000, 0.000, 11:06:09.555, 1561475169555
9, -36575.32, 0.00, 0.00, 0.00, 0.00, 0.00, 0.00, 0.00, 0.000, 0.000, 0.000, 11:06:09.555, 1561475169555
10, -37181.03, 0.00, 0.00, 0.00, 0.00, 0.00, 0.00, 0.00, 0.000, 0.000, 0.000, 11:06:09.555, 1561475169555
11, -37121.24, 0.00, 0.00, 0.00, 0.00, 0.00, 0.00, 0.00, 0.000, 0.000, 0.000, 11:06:09.556, 1561475169556
12, -36484.44, 0.00, 0.00, 0.00, 0.00, 0.00, 0.00, 0.00, 0.088, -0.050, 1.030, 11:06:09.556, 1561475169556
13, -36441.46, 0.00, 0.00, 0.00, 0.00, 0.00, 0.00, 0.00, 0.000, 0.000, 0.000, 11:06:09.556, 1561475169556
14, -37049.04, 0.00, 0.00, 0.00, 0.00, 0.00, 0.00, 0.00, 0.000, 0.000, 0.000, 11:06:09.556, 1561475169556
15, -37195.07, 0.00, 0.00, 0.00, 0.00, 0.00, 0.00, 0.00, 0.000, 0.000, 0.000, 11:06:09.556, 1561475169556
16, -36626.21, 0.00, 0.00, 0.00, 0.00, 0.00, 0.00, 0.00, 0.000, 0.000, 0.000, 11:06:09.556, 1561475169556
17, -36415.66, 0.00, 0.00, 0.00, 0.00, 0.00, 0.00, 0.00, 0.000, 0.000, 0.000, 11:06:09.556, 1561475169556
18, -36967.75, 0.00, 0.00, 0.00, 0.00, 0.00, 0.00, 0.00, 0.000, 0.000, 0.000, 11:06:09.556, 1561475169556
19, -37219.03, 0.00, 0.00, 0.00, 0.00, 0.00, 0.00, 0.00, 0.000, 0.000, 0.000, 11:06:09.556, 1561475169556
20, -36697.11, 0.00, 0.00, 0.00, 0.00, 0.00, 0.00, 0.00, 0.000, 0.000, 0.000, 11:06:09.556, 1561475169556
21, -36353.59, 0.00, 0.00, 0.00, 0.00, 0.00, 0.00, 0.00, 0.000, 0.000, 0.000, 11:06:09.556, 1561475169556
22, -36852.30, 0.00, 0.00, 0.00, 0.00, 0.00, 0.00, 0.00, 0.084, -0.050, 1.028, 11:06:09.557, 1561475169557
23, -37272.47, 0.00, 0.00, 0.00, 0.00, 0.00, 0.00, 0.00, 0.000, 0.000, 0.000, 11:06:09.557, 1561475169557
24, -36840.84, 0.00, 0.00, 0.00, 0.00, 0.00, 0.00, 0.00, 0.000, 0.000, 0.000, 11:06:09.557, 1561475169557
25, -36371.63, 0.00, 0.00, 0.00, 0.00, 0.00, 0.00, 0.00, 0.000, 0.000, 0.000, 11:06:09.557, 1561475169557
26, -36747.41, 0.00, 0.00, 0.00, 0.00, 0.00, 0.00, 0.00, 0.000, 0.000, 0.000, 11:06:09.557, 1561475169557
27, -37278.84, 0.00, 0.00, 0.00, 0.00, 0.00, 0.00, 0.00, 0.000, 0.000, 0.000, 11:06:09.557, 1561475169557
28, -36933.82, 0.00, 0.00, 0.00, 0.00, 0.00, 0.00, 0.00, 0.000, 0.000, 0.000, 11:06:09.557, 1561475169557
29, -36387.34, 0.00, 0.00, 0.00, 0.00, 0.00, 0.00, 0.00, 0.000, 0.000, 0.000, 11:06:09.557, 1561475169557
30, -36660.70, 0.00, 0.00, 0.00, 0.00, 0.00, 0.00, 0.00, 0.000, 0.000, 0.000, 11:06:09.557, 1561475169557
31, -37227.39, 0.00, 0.00, 0.00, 0.00, 0.00, 0.00, 0.00, 0.000, 0.000, 0.000, 11:06:09.557, 1561475169557
32, -37024.23, 0.00, 0.00, 0.00, 0.00, 0.00, 0.00, 0.00, 0.000, 0.000, 0.000, 11:06:09.557, 1561475169557
33, -36413.58, 0.00, 0.00, 0.00, 0.00, 0.00, 0.00, 0.00, 0.078, -0.048, 1.030, 11:06:09.557, 1561475169557
34, -36518.82, 0.00, 0.00, 0.00, 0.00, 0.00, 0.00, 0.00, 0.000, 0.000, 0.000, 11:06:09.557, 1561475169557
35, -37163.17, 0.00, 0.00, 0.00, 0.00, 0.00, 0.00, 0.00, 0.000, 0.000, 0.000, 11:06:09.557, 1561475169557
36, -37116.77, 0.00, 0.00, 0.00, 0.00, 0.00, 0.00, 0.00, 0.000, 0.000, 0.000, 11:06:09.557, 1561475169557
37, -36487.23, 0.00, 0.00, 0.00, 0.00, 0.00, 0.00, 0.00, 0.000, 0.000, 0.000, 11:06:09.557, 1561475169557
38, -36453.44, 0.00, 0.00, 0.00, 0.00, 0.00, 0.00, 0.00, 0.000, 0.000, 0.000, 11:06:09.558, 1561475169558
39, -37085.39, 0.00, 0.00, 0.00, 0.00, 0.00, 0.00, 0.00, 0.000, 0.000, 0.000, 11:06:09.558, 1561475169558
40, -37221.96, 0.00, 0.00, 0.00, 0.00, 0.00, 0.00, 0.00, 0.000, 0.000, 0.000, 11:06:09.558, 1561475169558
41, -36621.48, 0.00, 0.00, 0.00, 0.00, 0.00, 0.00, 0.00, 0.000, 0.000, 0.000, 11:06:09.558, 1561475169558
42, -36429.70, 0.00, 0.00, 0.00, 0.00, 0.00, 0.00, 0.00, 0.000, 0.000, 0.000, 11:06:09.558, 1561475169558
43, -36997.63, 0.00, 0.00, 0.00, 0.00, 0.00, 0.00, 0.00, 0.090, -0.050, 1.040, 11:06:09.558, 1561475169558
44, -37244.24, 0.00, 0.00, 0.00, 0.00, 0.00, 0.00, 0.00, 0.000, 0.000, 0.000, 11:06:09.558, 1561475169558
45, -36693.43, 0.00, 0.00, 0.00, 0.00, 0.00, 0.00, 0.00, 0.000, 0.000, 0.000, 11:06:09.558, 1561475169558
46, -36382.54, 0.00, 0.00, 0.00, 0.00, 0.00, 0.00, 0.00, 0.000, 0.000, 0.000, 11:06:09.558, 1561475169558
47, -36888.78, 0.00, 0.00, 0.00, 0.00, 0.00, 0.00, 0.00, 0.000, 0.000, 0.000, 11:06:09.558, 1561475169558
48, -37291.83, 0.00, 0.00, 0.00, 0.00, 0.00, 0.00, 0.00, 0.000, 0.000, 0.000, 11:06:09.558, 1561475169558
49, -36832.12, 0.00, 0.00, 0.00, 0.00, 0.00, 0.00, 0.00, 0.000, 0.000, 0.000, 11:06:09.559, 1561475169559
50, -36361.95, 0.00, 0.00, 0.00, 0.00, 0.00, 0.00, 0.00, 0.000, 0.000, 0.000, 11:06:09.559, 1561475169559
51, -36729.75, 0.00, 0.00, 0.00, 0.00, 0.00, 0.00, 0.00, 0.000, 0.000, 0.000, 11:06:09.559, 1561475169559
52, -37231.41, 0.00, 0.00, 0.00, 0.00, 0.00, 0.00, 0.00, 0.000, 0.000, 0.000, 11:06:09.559, 1561475169559
53, -36907.71, 0.00, 0.00, 0.00, 0.00, 0.00, 0.00, 0.00, 0.088, -0.050, 1.032, 11:06:09.559, 1561475169559
54, -36365.84, 0.00, 0.00, 0.00, 0.00, 0.00, 0.00, 0.00, 0.000, 0.000, 0.000, 11:06:09.559, 1561475169559
55, -36678.45, 0.00, 0.00, 0.00, 0.00, 0.00, 0.00, 0.00, 0.000, 0.000, 0.000, 11:06:09.560, 1561475169560
56, -37281.32, 0.00, 0.00, 0.00, 0.00, 0.00, 0.00, 0.00, 0.000, 0.000, 0.000, 11:06:09.560, 1561475169560
57, -37060.91, 0.00, 0.00, 0.00, 0.00, 0.00, 0.00, 0.00, 0.000, 0.000, 0.000, 11:06:09.560, 1561475169560
58, -36439.98, 0.00, 0.00, 0.00, 0.00, 0.00, 0.00, 0.00, 0.000, 0.000, 0.000, 11:06:09.560, 1561475169560
59, -36560.66, 0.00, 0.00, 0.00, 0.00, 0.00, 0.00, 0.00, 0.000, 0.000, 0.000, 11:06:10.032, 1561475170032
60, -37198.42, 0.00, 0.00, 0.00, 0.00, 0.00, 0.00, 0.00, 0.000, 0.000, 0.000, 11:06:10.032, 1561475170032
61, -37158.03, 0.00, 0.00, 0.00, 0.00, 0.00, 0.00, 0.00, 0.000, 0.000, 0.000, 11:06:10.033, 1561475170033
62, -36544.54, 0.00, 0.00, 0.00, 0.00, 0.00, 0.00, 0.00, 0.000, 0.000, 0.000, 11:06:10.033, 1561475170033
63, -36478.31, 0.00, 0.00, 0.00, 0.00, 0.00, 0.00, 0.00, 0.086, -0.050, 1.032, 11:06:10.033, 1561475170033
64, -37076.76, 0.00, 0.00, 0.00, 0.00, 0.00, 0.00, 0.00, 0.000, 0.000, 0.000, 11:06:10.033, 1561475170033
65, -37180.70, 0.00, 0.00, 0.00, 0.00, 0.00, 0.00, 0.00, 0.000, 0.000, 0.000, 11:06:10.033, 1561475170033
66, -36589.74, 0.00, 0.00, 0.00, 0.00, 0.00, 0.00, 0.00, 0.000, 0.000, 0.000, 11:06:10.033, 1561475170033
67, -36392.21, 0.00, 0.00, 0.00, 0.00, 0.00, 0.00, 0.00, 0.000, 0.000, 0.000, 11:06:10.033, 1561475170033
68, -37009.95, 0.00, 0.00, 0.00, 0.00, 0.00, 0.00, 0.00, 0.000, 0.000, 0.000, 11:06:10.033, 1561475170033
69, -37311.97, 0.00, 0.00, 0.00, 0.00, 0.00, 0.00, 0.00, 0.000, 0.000, 0.000, 11:06:10.033, 1561475170033
70, -36812.47, 0.00, 0.00, 0.00, 0.00, 0.00, 0.00, 0.00, 0.000, 0.000, 0.000, 11:06:10.033, 1561475170033
71, -36448.03, 0.00, 0.00, 0.00, 0.00, 0.00, 0.00, 0.00, 0.000, 0.000, 0.000, 11:06:10.033, 1561475170033
72, -36925.77, 0.00, 0.00, 0.00, 0.00, 0.00, 0.00, 0.00, 0.000, 0.000, 0.000, 11:06:10.033, 1561475170033
73, -37332.91, 0.00, 0.00, 0.00, 0.00, 0.00, 0.00, 0.00, 0.088, -0.044, 1.028, 11:06:10.033, 1561475170033
74, -36869.29, 0.00, 0.00, 0.00, 0.00, 0.00, 0.00, 0.00, 0.000, 0.000, 0.000, 11:06:10.033, 1561475170033
75, -36394.32, 0.00, 0.00, 0.00, 0.00, 0.00, 0.00, 0.00, 0.000, 0.000, 0.000, 11:06:10.034, 1561475170034
76, -36786.43, 0.00, 0.00, 0.00, 0.00, 0.00, 0.00, 0.00, 0.000, 0.000, 0.000, 11:06:10.034, 1561475170034
77, -37303.74, 0.00, 0.00, 0.00, 0.00, 0.00, 0.00, 0.00, 0.000, 0.000, 0.000, 11:06:10.034, 1561475170034
78, -36966.07, 0.00, 0.00, 0.00, 0.00, 0.00, 0.00, 0.00, 0.000, 0.000, 0.000, 11:06:10.034, 1561475170034
79, -36413.52, 0.00, 0.00, 0.00, 0.00, 0.00, 0.00, 0.00, 0.000, 0.000, 0.000, 11:06:10.034, 1561475170034
80, -36665.73, 0.00, 0.00, 0.00, 0.00, 0.00, 0.00, 0.00, 0.000, 0.000, 0.000, 11:06:10.034, 1561475170034
81, -37244.06, 0.00, 0.00, 0.00, 0.00, 0.00, 0.00, 0.00, 0.000, 0.000, 0.000, 11:06:10.034, 1561475170034
82, -37047.14, 0.00, 0.00, 0.00, 0.00, 0.00, 0.00, 0.00, 0.000, 0.000, 0.000, 11:06:10.034, 1561475170034
83, -36431.91, 0.00, 0.00, 0.00, 0.00, 0.00, 0.00, 0.00, 0.000, 0.000, 0.000, 11:06:10.034, 1561475170034
84, -36535.09, 0.00, 0.00, 0.00, 0.00, 0.00, 0.00, 0.00, 0.090, -0.044, 1.036, 11:06:10.034, 1561475170034
85, -37136.17, 0.00, 0.00, 0.00, 0.00, 0.00, 0.00, 0.00, 0.000, 0.000, 0.000, 11:06:10.034, 1561475170034
86, -37097.79, 0.00, 0.00, 0.00, 0.00, 0.00, 0.00, 0.00, 0.000, 0.000, 0.000, 11:06:10.035, 1561475170035
87, -36516.56, 0.00, 0.00, 0.00, 0.00, 0.00, 0.00, 0.00, 0.000, 0.000, 0.000, 11:06:10.035, 1561475170035
88, -36542.29, 0.00, 0.00, 0.00, 0.00, 0.00, 0.00, 0.00, 0.000, 0.000, 0.000, 11:06:10.035, 1561475170035
89, -37202.64, 0.00, 0.00, 0.00, 0.00, 0.00, 0.00, 0.00, 0.000, 0.000, 0.000, 11:06:10.035, 1561475170035
90, -37314.02, 0.00, 0.00, 0.00, 0.00, 0.00, 0.00, 0.00, 0.000, 0.000, 0.000, 11:06:10.035, 1561475170035
91, -36676.21, 0.00, 0.00, 0.00, 0.00, 0.00, 0.00, 0.00, 0.000, 0.000, 0.000, 11:06:10.036, 1561475170036
92, -36450.46, 0.00, 0.00, 0.00, 0.00, 0.00, 0.00, 0.00, 0.000, 0.000, 0.000, 11:06:10.036, 1561475170036
93, -37004.12, 0.00, 0.00, 0.00, 0.00, 0.00, 0.00, 0.00, 0.000, 0.000, 0.000, 11:06:10.036, 1561475170036
94, -37269.14, 0.00, 0.00, 0.00, 0.00, 0.00, 0.00, 0.00, 0.088, -0.046, 1.028, 11:06:10.036, 1561475170036
95, -36738.09, 0.00, 0.00, 0.00, 0.00, 0.00, 0.00, 0.00, 0.000, 0.000, 0.000, 11:06:10.036, 1561475170036
96, -36399.70, 0.00, 0.00, 0.00, 0.00, 0.00, 0.00, 0.00, 0.000, 0.000, 0.000, 11:06:10.036, 1561475170036
97, -36907.91, 0.00, 0.00, 0.00, 0.00, 0.00, 0.00, 0.00, 0.000, 0.000, 0.000, 11:06:10.036, 1561475170036
98, -37313.93, 0.00, 0.00, 0.00, 0.00, 0.00, 0.00, 0.00, 0.000, 0.000, 0.000, 11:06:10.036, 1561475170036
