%OpenBCI Raw EEG Data
%Number of channels = 8
%Sample Rate = 250.0 Hz
%First Column = SampleIndex
%Last Column = Timestamp 
%Other Columns = EEG data in microvolts followed by Accel Data (in G) interleaved with Aux Data
0, 0.00, 0.00, 0.00, 0.00, 0.00, 0.00, 0.00, 0.00, 0.068, 0.020, 1.024, 16:05:20.914, 1563221120914
1, -146.25, 79.06, -187500.02, -187500.02, -187500.02, 187500.00, -187500.02, -187500.02, 0.000, 0.000, 0.000, 16:05:21.403, 1563221121403
2, -86.10, 137.87, -187500.02, -187500.02, -187500.02, 187500.00, -187500.02, -187500.02, 0.000, 0.000, 0.000, 16:05:21.404, 1563221121404
3, -66.83, 155.59, -187500.02, -187500.02, -187500.02, 187500.00, -187500.02, -187500.02, 0.000, 0.000, 0.000, 16:05:21.404, 1563221121404
4, -119.51, 104.14, -187500.02, -187500.02, -187500.02, 187500.00, -187500.02, -187500.02, 0.000, 0.000, 0.000, 16:05:21.404, 1563221121404
5, -150.90, 74.50, -187500.02, -187500.02, -187500.02, 187500.00, -187500.02, -187500.02, 0.000, 0.000, 0.000, 16:05:21.404, 1563221121404
6, -97.27, 127.02, -187500.02, -187500.02, -187500.02, 187500.00, -187500.02, -187500.02, 0.000, 0.000, 0.000, 16:05:21.404, 1563221121404
7, -63.97, 158.65, -187500.02, -187500.02, -187500.02, 187500.00, -187500.02, -187500.02, 0.000, 0.000, 0.000, 16:05:21.404, 1563221121404
8, -109.17, 114.06, -187500.02, -187500.02, -187500.02, 187500.00, -187500.02, -187500.02, 0.040, 0.036, 1.020, 16:05:21.404, 1563221121404
9, -151.43, 73.54, -187500.02, -187500.02, -187500.02, 187500.00, -187500.02, -187500.02, 0.000, 0.000, 0.000, 16:05:21.404, 1563221121404
10, -108.88, 115.45, -187500.02, -187500.02, -187500.02, 187500.00, -187500.02, -187500.02, 0.000, 0.000, 0.000, 16:05:21.404, 1563221121404
11, -63.17, 159.23, -187500.02, -187500.02, -187500.02, 187500.00, -187500.02, -187500.02, 0.000, 0.000, 0.000, 16:05:21.404, 1563221121404
12, -98.37, 124.68, -187500.02, -187500.02, -187500.02, 187500.00, -187500.02, -187500.02, 0.000, 0.000, 0.000, 16:05:21.404, 1563221121404
13, -149.51, 75.28, -187500.02, -187500.02, -187500.02, 187500.00, -187500.02, -187500.02, 0.000, 0.000, 0.000, 16:05:21.404, 1563221121404
14, -120.43, 104.14, -187500.02, -187500.02, -187500.02, 187500.00, -187500.02, -187500.02, 0.000, 0.000, 0.000, 16:05:21.404, 1563221121404
15, -64.98, 157.27, -187500.02, -187500.02, -187500.02, 187500.00, -187500.02, -187500.02, 0.000, 0.000, 0.000, 16:05:21.404, 1563221121404
16, -88.38, 133.86, -187500.02, -187500.02, -187500.02, 187500.00, -187500.02, -187500.02, 0.000, 0.000, 0.000, 16:05:21.404, 1563221121404
17, -144.57, 79.82, -187500.02, -187500.02, -187500.02, 187500.00, -187500.02, -187500.02, 0.000, 0.000, 0.000, 16:05:21.404, 1563221121404
18, -131.03, 94.03, -187500.02, -187500.02, -187500.02, 187500.00, -187500.02, -187500.02, 0.030, 0.046, 1.018, 16:05:21.404, 1563221121404
19, -70.50, 152.98, -187500.02, -187500.02, -187500.02, 187500.00, -187500.02, -187500.02, 0.000, 0.000, 0.000, 16:05:21.404, 1563221121404
20, -80.38, 142.56, -187500.02, -187500.02, -187500.02, 187500.00, -187500.02, -187500.02, 0.000, 0.000, 0.000, 16:05:21.404, 1563221121404
21, -137.60, 86.41, -187500.02, -187500.02, -187500.02, 187500.00, -187500.02, -187500.02, 0.000, 0.000, 0.000, 16:05:21.404, 1563221121404
22, -139.83, 85.20, -187500.02, -187500.02, -187500.02, 187500.00, -187500.02, -187500.02, 0.000, 0.000, 0.000, 16:05:21.404, 1563221121404
23, -76.91, 146.49, -187500.02, -187500.02, -187500.02, 187500.00, -187500.02, -187500.02, 0.000, 0.000, 0.000, 16:05:21.404, 1563221121404
24, -72.96, 149.42, -187500.02, -187500.02, -187500.02, 187500.00, -187500.02, -187500.02, 0.000, 0.000, 0.000, 16:05:21.404, 1563221121404
25, -128.54, 95.08, -187500.02, -187500.02, -187500.02, 187500.00, -187500.02, -187500.02, 0.000, 0.000, 0.000, 16:05:21.404, 1563221121404
26, -145.93, 78.95, -187500.02, -187500.02, -187500.02, 187500.00, -187500.02, -187500.02, 0.000, 0.000, 0.000, 16:05:21.404, 1563221121404
27, -86.86, 136.37, -187500.02, -187500.02, -187500.02, 187500.00, -187500.02, -187500.02, 0.000, 0.000, 0.000, 16:05:21.404, 1563221121404
28, -67.37, 154.52, -187500.02, -187500.02, -187500.02, 187500.00, -187500.02, -187500.02, 0.028, 0.054, 1.020, 16:05:21.404, 1563221121404
29, -118.84, 104.67, -187500.02, -187500.02, -187500.02, 187500.00, -187500.02, -187500.02, 0.000, 0.000, 0.000, 16:05:21.404, 1563221121404
30, -150.23, 74.50, -187500.02, -187500.02, -187500.02, 187500.00, -187500.02, -187500.02, 0.000, 0.000, 0.000, 16:05:21.404, 1563221121404
31, -98.15, 125.71, -187500.02, -187500.02, -187500.02, 187500.00, -187500.02, -187500.02, 0.000, 0.000, 0.000, 16:05:21.404, 1563221121404
32, -64.04, 158.43, -187500.02, -187500.02, -187500.02, 187500.00, -187500.02, -187500.02, 0.000, 0.000, 0.000, 16:05:21.404, 1563221121404
33, -107.82, 115.04, -187500.02, -187500.02, -187500.02, 187500.00, -187500.02, -187500.02, 0.000, 0.000, 0.000, 16:05:21.405, 1563221121405
34, -151.25, 73.29, -187500.02, -187500.02, -187500.02, 187500.00, -187500.02, -187500.02, 0.000, 0.000, 0.000, 16:05:21.405, 1563221121405
35, -109.88, 114.42, -187500.02, -187500.02, -187500.02, 187500.00, -187500.02, -187500.02, 0.000, 0.000, 0.000, 16:05:21.405, 1563221121405
36, -63.52, 159.23, -187500.02, -187500.02, -187500.02, 187500.00, -187500.02, -187500.02, 0.000, 0.000, 0.000, 16:05:21.405, 1563221121405
37, -97.23, 125.86, -187500.02, -187500.02, -187500.02, 187500.00, -187500.02, -187500.02, 0.000, 0.000, 0.000, 16:05:21.405, 1563221121405
38, -149.47, 75.01, -187500.02, -187500.02, -187500.02, 187500.00, -187500.02, -187500.02, 0.030, 0.054, 1.020, 16:05:21.405, 1563221121405
39, -121.53, 103.18, -187500.02, -187500.02, -187500.02, 187500.00, -187500.02, -187500.02, 0.000, 0.000, 0.000, 16:05:21.405, 1563221121405
40, -65.42, 157.22, -187500.02, -187500.02, -187500.02, 187500.00, -187500.02, -187500.02, 0.000, 0.000, 0.000, 16:05:21.405, 1563221121405
41, -86.84, 135.90, -187500.02, -187500.02, -187500.02, 187500.00, -187500.02, -187500.02, 0.000, 0.000, 0.000, 16:05:21.405, 1563221121405
42, -144.71, 79.71, -187500.02, -187500.02, -187500.02, 187500.00, -187500.02, -187500.02, 0.000, 0.000, 0.000, 16:05:21.405, 1563221121405
43, -132.08, 92.76, -187500.02, -187500.02, -187500.02, 187500.00, -187500.02, -187500.02, 0.000, 0.000, 0.000, 16:05:21.405, 1563221121405
44, -70.65, 152.01, -187500.02, -187500.02, -187500.02, 187500.00, -187500.02, -187500.02, 0.000, 0.000, 0.000, 16:05:21.405, 1563221121405
45, -78.30, 144.19, -187500.02, -187500.02, -187500.02, 187500.00, -187500.02, -187500.02, 0.000, 0.000, 0.000, 16:05:21.405, 1563221121405
46, -137.49, 86.64, -187500.02, -187500.02, -187500.02, 187500.00, -187500.02, -187500.02, 0.000, 0.000, 0.000, 16:05:21.405, 1563221121405
47, -140.50, 84.31, -187500.02, -187500.02, -187500.02, 187500.00, -187500.02, -187500.02, 0.000, 0.000, 0.000, 16:05:21.405, 1563221121405
48, -78.52, 144.77, -187500.02, -187500.02, -187500.02, 187500.00, -187500.02, -187500.02, 0.000, 0.000, 0.000, 16:05:21.405, 1563221121405
49, -71.73, 150.58, -187500.02, -187500.02, -187500.02, 187500.00, -187500.02, -187500.02, 0.026, 0.050, 1.018, 16:05:21.405, 1563221121405
50, -127.81, 95.84, -187500.02, -187500.02, -187500.02, 187500.00, -187500.02, -187500.02, 0.000, 0.000, 0.000, 16:05:21.405, 1563221121405
51, -147.39, 77.43, -187500.02, -187500.02, -187500.02, 187500.00, -187500.02, -187500.02, 0.000, 0.000, 0.000, 16:05:21.405, 1563221121405
52, -88.11, 135.41, -187500.02, -187500.02, -187500.02, 187500.00, -187500.02, -187500.02, 0.000, 0.000, 0.000, 16:05:21.405, 1563221121405
53, -66.25, 156.26, -187500.02, -187500.02, -187500.02, 187500.00, -187500.02, -187500.02, 0.000, 0.000, 0.000, 16:05:21.405, 1563221121405
54, -117.66, 105.84, -187500.02, -187500.02, -187500.02, 187500.00, -187500.02, -187500.02, 0.000, 0.000, 0.000, 16:05:21.405, 1563221121405
55, -150.96, 73.49, -187500.02, -187500.02, -187500.02, 187500.00, -187500.02, -187500.02, 0.000, 0.000, 0.000, 16:05:21.405, 1563221121405
56, -98.73, 124.92, -187500.02, -187500.02, -187500.02, 187500.00, -187500.02, -187500.02, 0.000, 0.000, 0.000, 16:05:21.405, 1563221121405
57, -63.68, 158.88, -187500.02, -187500.02, -187500.02, 187500.00, -187500.02, -187500.02, 0.000, 0.000, 0.000, 16:05:21.405, 1563221121405
58, -106.98, 116.30, -187500.02, -187500.02, -187500.02, 187500.00, -187500.02, -187500.02, 0.000, 0.000, 0.000, 16:05:21.405, 1563221121405
59, -152.30, 72.67, -187500.02, -187500.02, -187500.02, 187500.00, -187500.02, -187500.02, 0.020, 0.048, 1.022, 16:05:21.405, 1563221121405
60, -110.71, 113.50, -187500.02, -187500.02, -187500.02, 187500.00, -187500.02, -187500.02, 0.000, 0.000, 0.000, 16:05:21.405, 1563221121405
61, -63.12, 159.32, -187500.02, -187500.02, -187500.02, 187500.00, -187500.02, -187500.02, 0.000, 0.000, 0.000, 16:05:21.405, 1563221121405
62, -96.34, 126.49, -187500.02, -187500.02, -187500.02, 187500.00, -187500.02, -187500.02, 0.000, 0.000, 0.000, 16:05:21.405, 1563221121405
63, -148.80, 75.73, -187500.02, -187500.02, -187500.02, 187500.00, -187500.02, -187500.02, 0.000, 0.000, 0.000, 16:05:21.405, 1563221121405
64, -122.20, 102.44, -187500.02, -187500.02, -187500.02, 187500.00, -187500.02, -187500.02, 0.000, 0.000, 0.000, 16:05:21.405, 1563221121405
65, -65.54, 156.93, -187500.02, -187500.02, -187500.02, 187500.00, -187500.02, -187500.02, 0.000, 0.000, 0.000, 16:05:21.406, 1563221121406
66, -87.28, 135.05, -187500.02, -187500.02, -187500.02, 187500.00, -187500.02, -187500.02, 0.000, 0.000, 0.000, 16:05:21.406, 1563221121406
67, -144.46, 79.86, -187500.02, -187500.02, -187500.02, 187500.00, -187500.02, -187500.02, 0.000, 0.000, 0.000, 16:05:21.406, 1563221121406
68, -132.55, 92.00, -187500.02, -187500.02, -187500.02, 187500.00, -187500.02, -187500.02, 0.000, 0.000, 0.000, 16:05:21.406, 1563221121406
69, -70.63, 151.99, -187500.02, -187500.02, -187500.02, 187500.00, -187500.02, -187500.02, 0.014, 0.052, 1.022, 16:05:21.406, 1563221121406
70, -78.41, 143.81, -187500.02, -187500.02, -187500.02, 187500.00, -187500.02, -187500.02, 0.000, 0.000, 0.000, 16:05:21.406, 1563221121406
71, -136.52, 87.42, -187500.02, -187500.02, -187500.02, 187500.00, -187500.02, -187500.02, 0.000, 0.000, 0.000, 16:05:21.406, 1563221121406
72, -141.13, 83.66, -187500.02, -187500.02, -187500.02, 187500.00, -187500.02, -187500.02, 0.000, 0.000, 0.000, 16:05:21.406, 1563221121406
73, -78.61, 144.50, -187500.02, -187500.02, -187500.02, 187500.00, -187500.02, -187500.02, 0.000, 0.000, 0.000, 16:05:21.406, 1563221121406
74, -70.92, 150.92, -187500.02, -187500.02, -187500.02, 187500.00, -187500.02, -187500.02, 0.000, 0.000, 0.000, 16:05:21.406, 1563221121406
75, -126.85, 96.81, -187500.02, -187500.02, -187500.02, 187500.00, -187500.02, -187500.02, 0.000, 0.000, 0.000, 16:05:21.406, 1563221121406
76, -147.10, 77.74, -187500.02, -187500.02, -187500.02, 187500.00, -187500.02, -187500.02, 0.000, 0.000, 0.000, 16:05:21.406, 1563221121406
77, -88.54, 134.85, -187500.02, -187500.02, -187500.02, 187500.00, -187500.02, -187500.02, 0.000, 0.000, 0.000, 16:05:21.406, 1563221121406
78, -66.38, 155.75, -187500.02, -187500.02, -187500.02, 187500.00, -187500.02, -187500.02, 0.000, 0.000, 0.000, 16:05:21.406, 1563221121406
79, -117.55, 105.77, -187500.02, -187500.02, -187500.02, 187500.00, -187500.02, -187500.02, 0.016, 0.060, 1.026, 16:05:21.406, 1563221121406
80, -150.63, 73.98, -187500.02, -187500.02, -187500.02, 187500.00, -187500.02, -187500.02, 0.000, 0.000, 0.000, 16:05:21.406, 1563221121406
81, -99.67, 123.87, -187500.02, -187500.02, -187500.02, 187500.00, -187500.02, -187500.02, 0.000, 0.000, 0.000, 16:05:21.406, 1563221121406
82, -63.70, 158.34, -187500.02, -187500.02, -187500.02, 187500.00, -187500.02, -187500.02, 0.000, 0.000, 0.000, 16:05:21.406, 1563221121406
83, -106.26, 116.52, -187500.02, -187500.02, -187500.02, 187500.00, -187500.02, -187500.02, 0.000, 0.000, 0.000, 16:05:21.406, 1563221121406
84, -151.10, 73.60, -187500.02, -187500.02, -187500.02, 187500.00, -187500.02, -187500.02, 0.000, 0.000, 0.000, 16:05:21.406, 1563221121406
85, -112.07, 112.68, -187500.02, -187500.02, -187500.02, 187500.00, -187500.02, -187500.02, 0.000, 0.000, 0.000, 16:05:21.406, 1563221121406
86, -63.34, 159.30, -187500.02, -187500.02, -187500.02, 187500.00, -187500.02, -187500.02, 0.000, 0.000, 0.000, 16:05:21.406, 1563221121406
87, -95.64, 127.20, -187500.02, -187500.02, -187500.02, 187500.00, -187500.02, -187500.02, 0.000, 0.000, 0.000, 16:05:21.406, 1563221121406
88, -148.73, 75.84, -187500.02, -187500.02, -187500.02, 187500.00, -187500.02, -187500.02, 0.000, 0.000, 0.000, 16:05:21.406, 1563221121406
89, -123.45, 101.39, -187500.02, -187500.02, -187500.02, 187500.00, -187500.02, -187500.02, 0.014, 0.054, 1.022, 16:05:21.406, 1563221121406
90, -66.32, 156.28, -187500.02, -187500.02, -187500.02, 187500.00, -187500.02, -187500.02, 0.000, 0.000, 0.000, 16:05:21.406, 1563221121406
91, -86.19, 136.41, -187500.02, -187500.02, -187500.02, 187500.00, -187500.02, -187500.02, 0.000, 0.000, 0.000, 16:05:21.406, 1563221121406
92, -143.23, 81.05, -187500.02, -187500.02, -187500.02, 187500.00, -187500.02, -187500.02, 0.000, 0.000, 0.000, 16:05:21.406, 1563221121406
93, -133.69, 91.24, -187500.02, -187500.02, -187500.02, 187500.00, -187500.02, -187500.02, 0.000, 0.000, 0.000, 16:05:21.406, 1563221121406
94, -72.17, 150.90, -187500.02, -187500.02, -187500.02, 187500.00, -187500.02, -187500.02, 0.000, 0.000, 0.000, 16:05:21.406, 1563221121406
95, -77.47, 144.93, -187500.02, -187500.02, -187500.02, 187500.00, -187500.02, -187500.02, 0.000, 0.000, 0.000, 16:05:21.406, 1563221121406
96, -136.01, 87.82, -187500.02, -187500.02, -187500.02, 187500.00, -187500.02, -187500.02, 0.000, 0.000, 0.000, 16:05:21.406, 1563221121406
97, -142.00, 82.77, -187500.02, -187500.02, -187500.02, 187500.00, -187500.02, -187500.02, 0.000, 0.000, 0.000, 16:05:21.406, 1563221121406
98, -79.80, 143.77, -187500.02, -187500.02, -187500.02, 187500.00, -187500.02, -187500.02, 0.000, 0.000, 0.000, 16:05:21.406, 1563221121406
99, -70.79, 151.86, -187500.02, -187500.02, -187500.02, 187500.00, -187500.02, -187500.02, 0.000, 0.000, 0.000, 16:05:21.406, 1563221121406
100, -126.98, 97.07, -187500.02, -187500.02, -187500.02, 187500.00, -187500.02, -187500.02, 0.016, 0.058, 1.032, 16:05:21.407, 1563221121407
101, -148.71, 76.78, -187500.02, -187500.02, -187500.02, 187500.00, -187500.02, -187500.02, 0.000, 0.000, 0.000, 16:05:21.407, 1563221121407
102, -89.83, 133.86, -187500.02, -187500.02, -187500.02, 187500.00, -187500.02, -187500.02, 0.000, 0.000, 0.000, 16:05:21.407, 1563221121407
103, -66.07, 156.48, -187500.02, -187500.02, -187500.02, 187500.00, -187500.02, -187500.02, 0.000, 0.000, 0.000, 16:05:21.407, 1563221121407
104, -115.71, 108.12, -187500.02, -187500.02, -187500.02, 187500.00, -187500.02, -187500.02, 0.000, 0.000, 0.000, 16:05:21.407, 1563221121407
105, -151.39, 73.83, -187500.02, -187500.02, -187500.02, 187500.00, -187500.02, -187500.02, 0.000, 0.000, 0.000, 16:05:21.407, 1563221121407
106, -101.30, 123.18, -187500.02, -187500.02, -187500.02, 187500.00, -187500.02, -187500.02, 0.000, 0.000, 0.000, 16:05:21.407, 1563221121407
107, -63.43, 159.39, -187500.02, -187500.02, -187500.02, 187500.00, -187500.02, -187500.02, 0.000, 0.000, 0.000, 16:05:21.407, 1563221121407
108, -105.59, 117.77, -187500.02, -187500.02, -187500.02, 187500.00, -187500.02, -187500.02, 0.000, 0.000, 0.000, 16:05:21.407, 1563221121407
109, -151.05, 73.89, -187500.02, -187500.02, -187500.02, 187500.00, -187500.02, -187500.02, 0.000, 0.000, 0.000, 16:05:21.407, 1563221121407
110, -112.70, 111.98, -187500.02, -187500.02, -187500.02, 187500.00, -187500.02, -187500.02, 0.014, 0.060, 1.028, 16:05:21.407, 1563221121407
111, -63.93, 158.68, -187500.02, -187500.02, -187500.02, 187500.00, -187500.02, -187500.02, 0.000, 0.000, 0.000, 16:05:21.407, 1563221121407
112, -95.26, 127.47, -187500.02, -187500.02, -187500.02, 187500.00, -187500.02, -187500.02, 0.000, 0.000, 0.000, 16:05:21.407, 1563221121407
113, -148.06, 76.35, -187500.02, -187500.02, -187500.02, 187500.00, -187500.02, -187500.02, 0.000, 0.000, 0.000, 16:05:21.407, 1563221121407
114, -123.87, 100.78, -187500.02, -187500.02, -187500.02, 187500.00, -187500.02, -187500.02, 0.000, 0.000, 0.000, 16:05:21.407, 1563221121407
115, -66.25, 156.48, -187500.02, -187500.02, -187500.02, 187500.00, -187500.02, -187500.02, 0.000, 0.000, 0.000, 16:05:21.407, 1563221121407
116, -85.29, 137.13, -187500.02, -187500.02, -187500.02, 187500.00, -187500.02, -187500.02, 0.000, 0.000, 0.000, 16:05:21.407, 1563221121407
117, -142.74, 81.85, -187500.02, -187500.02, -187500.02, 187500.00, -187500.02, -187500.02, 0.000, 0.000, 0.000, 16:05:21.407, 1563221121407
118, -134.07, 90.90, -187500.02, -187500.02, -187500.02, 187500.00, -187500.02, -187500.02, 0.000, 0.000, 0.000, 16:05:21.407, 1563221121407
119, -72.13, 151.05, -187500.02, -187500.02, -187500.02, 187500.00, -187500.02, -187500.02, 0.000, 0.000, 0.000, 16:05:21.407, 1563221121407
120, -76.78, 145.80, -187500.02, -187500.02, -187500.02, 187500.00, -187500.02, -187500.02, 0.020, 0.054, 1.024, 16:05:21.407, 1563221121407
121, -135.36, 89.03, -187500.02, -187500.02, -187500.02, 187500.00, -187500.02, -187500.02, 0.000, 0.000, 0.000, 16:05:21.883, 1563221121883
122, -142.31, 82.84, -187500.02, -187500.02, -187500.02, 187500.00, -187500.02, -187500.02, 0.000, 0.000, 0.000, 16:05:21.884, 1563221121884
123, -79.71, 143.79, -187500.02, -187500.02, -187500.02, 187500.00, -187500.02, -187500.02, 0.000, 0.000, 0.000, 16:05:21.884, 1563221121884
124, -70.83, 151.72, -187500.02, -187500.02, -187500.02, 187500.00, -187500.02, -187500.02, 0.000, 0.000, 0.000, 16:05:21.884, 1563221121884
125, -126.49, 97.32, -187500.02, -187500.02, -187500.02, 187500.00, -187500.02, -187500.02, 0.000, 0.000, 0.000, 16:05:21.884, 1563221121884
126, -148.26, 76.51, -187500.02, -187500.02, -187500.02, 187500.00, -187500.02, -187500.02, 0.000, 0.000, 0.000, 16:05:21.884, 1563221121884
127, -90.50, 133.35, -187500.02, -187500.02, -187500.02, 187500.00, -187500.02, -187500.02, 0.000, 0.000, 0.000, 16:05:21.884, 1563221121884
128, -65.29, 157.33, -187500.02, -187500.02, -187500.02, 187500.00, -187500.02, -187500.02, 0.000, 0.000, 0.000, 16:05:21.884, 1563221121884
129, -115.87, 107.91, -187500.02, -187500.02, -187500.02, 187500.00, -187500.02, -187500.02, 0.000, 0.000, 0.000, 16:05:21.884, 1563221121884
130, -151.48, 73.45, -187500.02, -187500.02, -187500.02, 187500.00, -187500.02, -187500.02, 0.016, 0.056, 1.030, 16:05:21.884, 1563221121884
131, -101.34, 122.76, -187500.02, -187500.02, -187500.02, 187500.00, -187500.02, -187500.02, 0.000, 0.000, 0.000, 16:05:21.884, 1563221121884
132, -63.72, 158.94, -187500.02, -187500.02, -187500.02, 187500.00, -187500.02, -187500.02, 0.000, 0.000, 0.000, 16:05:21.884, 1563221121884
133, -104.87, 118.35, -187500.02, -187500.02, -187500.02, 187500.00, -187500.02, -187500.02, 0.000, 0.000, 0.000, 16:05:21.884, 1563221121884
134, -150.90, 74.07, -187500.02, -187500.02, -187500.02, 187500.00, -187500.02, -187500.02, 0.000, 0.000, 0.000, 16:05:21.884, 1563221121884
135, -113.59, 111.36, -187500.02, -187500.02, -187500.02, 187500.00, -187500.02, -187500.02, 0.000, 0.000, 0.000, 16:05:21.884, 1563221121884
136, -63.99, 158.99, -187500.02, -187500.02, -187500.02, 187500.00, -187500.02, -187500.02, 0.000, 0.000, 0.000, 16:05:21.884, 1563221121884
137, -94.84, 128.14, -187500.02, -187500.02, -187500.02, 187500.00, -187500.02, -187500.02, 0.000, 0.000, 0.000, 16:05:21.884, 1563221121884
138, -148.46, 76.78, -187500.02, -187500.02, -187500.02, 187500.00, -187500.02, -187500.02, 0.000, 0.000, 0.000, 16:05:21.884, 1563221121884
139, -124.66, 100.69, -187500.02, -187500.02, -187500.02, 187500.00, -187500.02, -187500.02, 0.000, 0.000, 0.000, 16:05:21.884, 1563221121884
140, -66.85, 156.15, -187500.02, -187500.02, -187500.02, 187500.00, -187500.02, -187500.02, 0.020, 0.056, 1.024, 16:05:21.884, 1563221121884
141, -85.03, 137.53, -187500.02, -187500.02, -187500.02, 187500.00, -187500.02, -187500.02, 0.000, 0.000, 0.000, 16:05:21.884, 1563221121884
142, -142.25, 81.81, -187500.02, -187500.02, -187500.02, 187500.00, -187500.02, -187500.02, 0.000, 0.000, 0.000, 16:05:21.884, 1563221121884
143, -134.69, 89.92, -187500.02, -187500.02, -187500.02, 187500.00, -187500.02, -187500.02, 0.000, 0.000, 0.000, 16:05:21.884, 1563221121884
144, -72.60, 150.38, -187500.02, -187500.02, -187500.02, 187500.00, -187500.02, -187500.02, 0.000, 0.000, 0.000, 16:05:21.884, 1563221121884
145, -76.82, 145.93, -187500.02, -187500.02, -187500.02, 187500.00, -187500.02, -187500.02, 0.000, 0.000, 0.000, 16:05:21.884, 1563221121884
146, -134.69, 89.12, -187500.02, -187500.02, -187500.02, 187500.00, -187500.02, -187500.02, 0.000, 0.000, 0.000, 16:05:21.884, 1563221121884
147, -143.10, 81.79, -187500.02, -187500.02, -187500.02, 187500.00, -187500.02, -187500.02, 0.000, 0.000, 0.000, 16:05:21.884, 1563221121884
148, -80.94, 142.22, -187500.02, -187500.02, -187500.02, 187500.00, -187500.02, -187500.02, 0.000, 0.000, 0.000, 16:05:21.884, 1563221121884
149, -69.87, 152.53, -187500.02, -187500.02, -187500.02, 187500.00, -187500.02, -187500.02, 0.000, 0.000, 0.000, 16:05:21.884, 1563221121884
150, -125.21, 98.77, -187500.02, -187500.02, -187500.02, 187500.00, -187500.02, -187500.02, 0.020, 0.058, 1.024, 16:05:21.884, 1563221121884
151, -148.95, 76.24, -187500.02, -187500.02, -187500.02, 187500.00, -187500.02, -187500.02, 0.000, 0.000, 0.000, 16:05:21.884, 1563221121884
152, -91.22, 132.64, -187500.02, -187500.02, -187500.02, 187500.00, -187500.02, -187500.02, 0.000, 0.000, 0.000, 16:05:21.884, 1563221121884
153, -65.24, 157.38, -187500.02, -187500.02, -187500.02, 187500.00, -187500.02, -187500.02, 0.000, 0.000, 0.000, 16:05:21.885, 1563221121885
154, -114.46, 109.21, -187500.02, -187500.02, -187500.02, 187500.00, -187500.02, -187500.02, 0.000, 0.000, 0.000, 16:05:21.885, 1563221121885
155, -151.84, 73.45, -187500.02, -187500.02, -187500.02, 187500.00, -187500.02, -187500.02, 0.000, 0.000, 0.000, 16:05:21.885, 1563221121885
156, -102.62, 121.66, -187500.02, -187500.02, -187500.02, 187500.00, -187500.02, -187500.02, 0.000, 0.000, 0.000, 16:05:21.885, 1563221121885
157, -63.46, 158.99, -187500.02, -187500.02, -187500.02, 187500.00, -187500.02, -187500.02, 0.000, 0.000, 0.000, 16:05:21.885, 1563221121885
158, -104.23, 118.64, -187500.02, -187500.02, -187500.02, 187500.00, -187500.02, -187500.02, 0.000, 0.000, 0.000, 16:05:21.885, 1563221121885
159, -150.96, 74.23, -187500.02, -187500.02, -187500.02, 187500.00, -187500.02, -187500.02, 0.000, 0.000, 0.000, 16:05:21.885, 1563221121885
160, -114.66, 110.19, -187500.02, -187500.02, -187500.02, 187500.00, -187500.02, -187500.02, 0.000, 0.000, 0.000, 16:05:21.885, 1563221121885
161, -64.10, 158.79, -187500.02, -187500.02, -187500.02, 187500.00, -187500.02, -187500.02, 0.030, 0.056, 1.024, 16:05:21.885, 1563221121885
162, -93.81, 129.44, -187500.02, -187500.02, -187500.02, 187500.00, -187500.02, -187500.02, 0.000, 0.000, 0.000, 16:05:21.885, 1563221121885
163, -147.95, 76.80, -187500.02, -187500.02, -187500.02, 187500.00, -187500.02, -187500.02, 0.000, 0.000, 0.000, 16:05:21.885, 1563221121885
164, -125.75, 98.73, -187500.02, -187500.02, -187500.02, 187500.00, -187500.02, -187500.02, 0.000, 0.000, 0.000, 16:05:21.885, 1563221121885
165, -67.39, 155.21, -187500.02, -187500.02, -187500.02, 187500.00, -187500.02, -187500.02, 0.000, 0.000, 0.000, 16:05:21.885, 1563221121885
166, -84.29, 138.33, -187500.02, -187500.02, -187500.02, 187500.00, -187500.02, -187500.02, 0.000, 0.000, 0.000, 16:05:21.885, 1563221121885
167, -141.64, 82.79, -187500.02, -187500.02, -187500.02, 187500.00, -187500.02, -187500.02, 0.000, 0.000, 0.000, 16:05:21.885, 1563221121885
168, -135.00, 89.72, -187500.02, -187500.02, -187500.02, 187500.00, -187500.02, -187500.02, 0.000, 0.000, 0.000, 16:05:21.885, 1563221121885
169, -72.96, 149.87, -187500.02, -187500.02, -187500.02, 187500.00, -187500.02, -187500.02, 0.000, 0.000, 0.000, 16:05:21.885, 1563221121885
170, -75.95, 146.25, -187500.02, -187500.02, -187500.02, 187500.00, -187500.02, -187500.02, 0.000, 0.000, 0.000, 16:05:21.885, 1563221121885
171, -133.95, 89.90, -187500.02, -187500.02, -187500.02, 187500.00, -187500.02, -187500.02, 0.028, 0.062, 1.026, 16:05:21.885, 1563221121885
172, -143.74, 81.25, -187500.02, -187500.02, -187500.02, 187500.00, -187500.02, -187500.02, 0.000, 0.000, 0.000, 16:05:21.885, 1563221121885
173, -81.83, 141.89, -187500.02, -187500.02, -187500.02, 187500.00, -187500.02, -187500.02, 0.000, 0.000, 0.000, 16:05:21.885, 1563221121885
174, -69.45, 152.98, -187500.02, -187500.02, -187500.02, 187500.00, -187500.02, -187500.02, 0.000, 0.000, 0.000, 16:05:21.885, 1563221121885
175, -124.86, 98.82, -187500.02, -187500.02, -187500.02, 187500.00, -187500.02, -187500.02, 0.000, 0.000, 0.000, 16:05:21.885, 1563221121885
176, -149.04, 75.97, -187500.02, -187500.02, -187500.02, 187500.00, -187500.02, -187500.02, 0.000, 0.000, 0.000, 16:05:21.885, 1563221121885
177, -91.82, 131.92, -187500.02, -187500.02, -187500.02, 187500.00, -187500.02, -187500.02, 0.000, 0.000, 0.000, 16:05:21.885, 1563221121885
178, -65.54, 156.93, -187500.02, -187500.02, -187500.02, 187500.00, -187500.02, -187500.02, 0.000, 0.000, 0.000, 16:05:21.885, 1563221121885
179, -114.08, 109.43, -187500.02, -187500.02, -187500.02, 187500.00, -187500.02, -187500.02, 0.000, 0.000, 0.000, 16:05:21.885, 1563221121885
180, -150.92, 73.58, -187500.02, -187500.02, -187500.02, 187500.00, -187500.02, -187500.02, 0.000, 0.000, 0.000, 16:05:21.885, 1563221121885
181, -102.68, 120.68, -187500.02, -187500.02, -187500.02, 187500.00, -187500.02, -187500.02, 0.022, 0.060, 1.026, 16:05:21.885, 1563221121885
182, -62.90, 158.97, -187500.02, -187500.02, -187500.02, 187500.00, -187500.02, -187500.02, 0.000, 0.000, 0.000, 16:05:21.885, 1563221121885
183, -103.22, 119.38, -187500.02, -187500.02, -187500.02, 187500.00, -187500.02, -187500.02, 0.000, 0.000, 0.000, 16:05:21.885, 1563221121885
184, -150.14, 74.52, -187500.02, -187500.02, -187500.02, 187500.00, -187500.02, -187500.02, 0.000, 0.000, 0.000, 16:05:21.886, 1563221121886
185, -114.73, 109.21, -187500.02, -187500.02, -187500.02, 187500.00, -187500.02, -187500.02, 0.000, 0.000, 0.000, 16:05:21.886, 1563221121886
186, -63.23, 158.74, -187500.02, -187500.02, -187500.02, 187500.00, -187500.02, -187500.02, 0.000, 0.000, 0.000, 16:05:21.886, 1563221121886
187, -92.67, 129.84, -187500.02, -187500.02, -187500.02, 187500.00, -187500.02, -187500.02, 0.000, 0.000, 0.000, 16:05:21.886, 1563221121886
188, -146.78, 77.52, -187500.02, -187500.02, -187500.02, 187500.00, -187500.02, -187500.02, 0.000, 0.000, 0.000, 16:05:21.886, 1563221121886
189, -125.86, 98.24, -187500.02, -187500.02, -187500.02, 187500.00, -187500.02, -187500.02, 0.000, 0.000, 0.000, 16:05:21.886, 1563221121886
190, -67.30, 154.88, -187500.02, -187500.02, -187500.02, 187500.00, -187500.02, -187500.02, 0.000, 0.000, 0.000, 16:05:21.886, 1563221121886
191, -83.77, 138.33, -187500.02, -187500.02, -187500.02, 187500.00, -187500.02, -187500.02, 0.020, 0.060, 1.024, 16:05:21.886, 1563221121886
192, -141.08, 82.77, -187500.02, -187500.02, -187500.02, 187500.00, -187500.02, -187500.02, 0.000, 0.000, 0.000, 16:05:21.886, 1563221121886
193, -135.79, 88.87, -187500.02, -187500.02, -187500.02, 187500.00, -187500.02, -187500.02, 0.000, 0.000, 0.000, 16:05:21.886, 1563221121886
194, -73.60, 149.00, -187500.02, -187500.02, -187500.02, 187500.00, -187500.02, -187500.02, 0.000, 0.000, 0.000, 16:05:21.886, 1563221121886
195, -75.19, 146.94, -187500.02, -187500.02, -187500.02, 187500.00, -187500.02, -187500.02, 0.000, 0.000, 0.000, 16:05:21.886, 1563221121886
196, -133.53, 90.68, -187500.02, -187500.02, -187500.02, 187500.00, -187500.02, -187500.02, 0.000, 0.000, 0.000, 16:05:21.886, 1563221121886
197, -144.48, 80.44, -187500.02, -187500.02, -187500.02, 187500.00, -187500.02, -187500.02, 0.000, 0.000, 0.000, 16:05:21.886, 1563221121886
198, -82.19, 140.59, -187500.02, -187500.02, -187500.02, 187500.00, -187500.02, -187500.02, 0.000, 0.000, 0.000, 16:05:21.886, 1563221121886
199, -68.58, 153.27, -187500.02, -187500.02, -187500.02, 187500.00, -187500.02, -187500.02, 0.000, 0.000, 0.000, 16:05:21.886, 1563221121886
200, -122.82, 100.11, -187500.02, -187500.02, -187500.02, 187500.00, -187500.02, -187500.02, 0.000, 0.000, 0.000, 16:05:21.886, 1563221121886
201, -148.75, 75.50, -187500.02, -187500.02, -187500.02, 187500.00, -187500.02, -187500.02, 0.016, 0.056, 1.022, 16:05:21.886, 1563221121886
202, -92.74, 130.67, -187500.02, -187500.02, -187500.02, 187500.00, -187500.02, -187500.02, 0.000, 0.000, 0.000, 16:05:21.886, 1563221121886
203, -64.75, 157.56, -187500.02, -187500.02, -187500.02, 187500.00, -187500.02, -187500.02, 0.000, 0.000, 0.000, 16:05:21.886, 1563221121886
204, -112.41, 110.44, -187500.02, -187500.02, -187500.02, 187500.00, -187500.02, -187500.02, 0.000, 0.000, 0.000, 16:05:21.886, 1563221121886
205, -151.68, 72.84, -187500.02, -187500.02, -187500.02, 187500.00, -187500.02, -187500.02, 0.000, 0.000, 0.000, 16:05:21.886, 1563221121886
206, -104.58, 119.22, -187500.02, -187500.02, -187500.02, 187500.00, -187500.02, -187500.02, 0.000, 0.000, 0.000, 16:05:21.886, 1563221121886
207, -63.03, 159.39, -187500.02, -187500.02, -187500.02, 187500.00, -187500.02, -187500.02, 0.000, 0.000, 0.000, 16:05:21.886, 1563221121886
208, -101.95, 120.72, -187500.02, -187500.02, -187500.02, 187500.00, -187500.02, -187500.02, 0.000, 0.000, 0.000, 16:05:21.886, 1563221121886
209, -150.83, 73.51, -187500.02, -187500.02, -187500.02, 187500.00, -187500.02, -187500.02, 0.000, 0.000, 0.000, 16:05:21.886, 1563221121886
210, -116.05, 108.32, -187500.02, -187500.02, -187500.02, 187500.00, -187500.02, -187500.02, 0.000, 0.000, 0.000, 16:05:21.886, 1563221121886
211, -63.64, 158.88, -187500.02, -187500.02, -187500.02, 187500.00, -187500.02, -187500.02, 0.000, 0.000, 0.000, 16:05:21.886, 1563221121886
212, -91.51, 130.69, -187500.02, -187500.02, -187500.02, 187500.00, -187500.02, -187500.02, 0.022, 0.058, 1.018, 16:05:21.886, 1563221121886
213, -147.41, 76.62, -187500.02, -187500.02, -187500.02, 187500.00, -187500.02, -187500.02, 0.000, 0.000, 0.000, 16:05:21.886, 1563221121886
214, -127.09, 97.16, -187500.02, -187500.02, -187500.02, 187500.00, -187500.02, -187500.02, 0.000, 0.000, 0.000, 16:05:21.886, 1563221121886
215, -68.17, 154.41, -187500.02, -187500.02, -187500.02, 187500.00, -187500.02, -187500.02, 0.000, 0.000, 0.000, 16:05:21.886, 1563221121886
216, -82.86, 139.36, -187500.02, -187500.02, -187500.02, 187500.00, -187500.02, -187500.02, 0.000, 0.000, 0.000, 16:05:21.886, 1563221121886
217, -140.93, 83.10, -187500.02, -187500.02, -187500.02, 187500.00, -187500.02, -187500.02, 0.000, 0.000, 0.000, 16:05:21.886, 1563221121886
218, -136.90, 87.28, -187500.02, -187500.02, -187500.02, 187500.00, -187500.02, -187500.02, 0.000, 0.000, 0.000, 16:05:21.887, 1563221121887
219, -73.63, 148.73, -187500.02, -187500.02, -187500.02, 187500.00, -187500.02, -187500.02, 0.000, 0.000, 0.000, 16:05:21.887, 1563221121887
220, -74.88, 147.59, -187500.02, -187500.02, -187500.02, 187500.00, -187500.02, -187500.02, 0.000, 0.000, 0.000, 16:05:21.887, 1563221121887
221, -132.21, 92.02, -187500.02, -187500.02, -187500.02, 187500.00, -187500.02, -187500.02, 0.000, 0.000, 0.000, 16:05:21.887, 1563221121887
222, -143.97, 80.51, -187500.02, -187500.02, -187500.02, 187500.00, -187500.02, -187500.02, 0.016, 0.052, 1.024, 16:05:21.887, 1563221121887
223, -82.54, 140.26, -187500.02, -187500.02, -187500.02, 187500.00, -187500.02, -187500.02, 0.000, 0.000, 0.000, 16:05:21.887, 1563221121887
224, -68.53, 153.53, -187500.02, -187500.02, -187500.02, 187500.00, -187500.02, -187500.02, 0.000, 0.000, 0.000, 16:05:21.887, 1563221121887
225, -123.49, 99.98, -187500.02, -187500.02, -187500.02, 187500.00, -187500.02, -187500.02, 0.000, 0.000, 0.000, 16:05:21.887, 1563221121887
226, -149.29, 75.19, -187500.02, -187500.02, -187500.02, 187500.00, -187500.02, -187500.02, 0.000, 0.000, 0.000, 16:05:21.887, 1563221121887
227, -92.89, 130.49, -187500.02, -187500.02, -187500.02, 187500.00, -187500.02, -187500.02, 0.000, 0.000, 0.000, 16:05:21.887, 1563221121887
228, -64.24, 157.54, -187500.02, -187500.02, -187500.02, 187500.00, -187500.02, -187500.02, 0.000, 0.000, 0.000, 16:05:21.887, 1563221121887
229, -111.98, 110.60, -187500.02, -187500.02, -187500.02, 187500.00, -187500.02, -187500.02, 0.000, 0.000, 0.000, 16:05:21.887, 1563221121887
230, -150.96, 73.38, -187500.02, -187500.02, -187500.02, 187500.00, -187500.02, -187500.02, 0.000, 0.000, 0.000, 16:05:21.887, 1563221121887
231, -104.81, 118.93, -187500.02, -187500.02, -187500.02, 187500.00, -187500.02, -187500.02, 0.000, 0.000, 0.000, 16:05:21.887, 1563221121887
232, -62.83, 158.88, -187500.02, -187500.02, -187500.02, 187500.00, -187500.02, -187500.02, 0.020, 0.052, 1.024, 16:05:21.887, 1563221121887
233, -101.81, 120.61, -187500.02, -187500.02, -187500.02, 187500.00, -187500.02, -187500.02, 0.000, 0.000, 0.000, 16:05:21.887, 1563221121887
234, -150.14, 73.96, -187500.02, -187500.02, -187500.02, 187500.00, -187500.02, -187500.02, 0.000, 0.000, 0.000, 16:05:21.887, 1563221121887
235, -116.47, 107.49, -187500.02, -187500.02, -187500.02, 187500.00, -187500.02, -187500.02, 0.000, 0.000, 0.000, 16:05:21.887, 1563221121887
236, -64.15, 158.30, -187500.02, -187500.02, -187500.02, 187500.00, -187500.02, -187500.02, 0.000, 0.000, 0.000, 16:05:21.887, 1563221121887
237, -91.51, 131.12, -187500.02, -187500.02, -187500.02, 187500.00, -187500.02, -187500.02, 0.000, 0.000, 0.000, 16:05:21.887, 1563221121887
238, -146.52, 77.45, -187500.02, -187500.02, -187500.02, 187500.00, -187500.02, -187500.02, 0.000, 0.000, 0.000, 16:05:21.887, 1563221121887
239, -127.72, 96.29, -187500.02, -187500.02, -187500.02, 187500.00, -187500.02, -187500.02, 0.000, 0.000, 0.000, 16:05:21.887, 1563221121887
240, -68.11, 154.23, -187500.02, -187500.02, -187500.02, 187500.00, -187500.02, -187500.02, 0.000, 0.000, 0.000, 16:05:21.887, 1563221121887
241, -82.43, 139.74, -187500.02, -187500.02, -187500.02, 187500.00, -187500.02, -187500.02, 0.000, 0.000, 0.000, 16:05:22.357, 1563221122357
242, -140.01, 83.95, -187500.02, -187500.02, -187500.02, 187500.00, -187500.02, -187500.02, 0.016, 0.050, 1.022, 16:05:22.357, 1563221122357
243, -137.46, 86.72, -187500.02, -187500.02, -187500.02, 187500.00, -187500.02, -187500.02, 0.000, 0.000, 0.000, 16:05:22.357, 1563221122357
244, -74.63, 147.97, -187500.02, -187500.02, -187500.02, 187500.00, -187500.02, -187500.02, 0.000, 0.000, 0.000, 16:05:22.357, 1563221122357
245, -73.85, 148.17, -187500.02, -187500.02, -187500.02, 187500.00, -187500.02, -187500.02, 0.000, 0.000, 0.000, 16:05:22.357, 1563221122357
246, -131.65, 91.80, -187500.02, -187500.02, -187500.02, 187500.00, -187500.02, -187500.02, 0.000, 0.000, 0.000, 16:05:22.357, 1563221122357
247, -145.09, 79.44, -187500.02, -187500.02, -187500.02, 187500.00, -187500.02, -187500.02, 0.000, 0.000, 0.000, 16:05:22.357, 1563221122357
248, -83.89, 139.39, -187500.02, -187500.02, -187500.02, 187500.00, -187500.02, -187500.02, 0.000, 0.000, 0.000, 16:05:22.357, 1563221122357
249, -67.99, 154.14, -187500.02, -187500.02, -187500.02, 187500.00, -187500.02, -187500.02, 0.000, 0.000, 0.000, 16:05:22.357, 1563221122357
250, -121.79, 101.66, -187500.02, -187500.02, -187500.02, 187500.00, -187500.02, -187500.02, 0.000, 0.000, 0.000, 16:05:22.357, 1563221122357
251, -149.60, 75.01, -187500.02, -187500.02, -187500.02, 187500.00, -187500.02, -187500.02, 0.000, 0.000, 0.000, 16:05:22.357, 1563221122357
252, -94.30, 128.92, -187500.02, -187500.02, -187500.02, 187500.00, -187500.02, -187500.02, 0.020, 0.052, 1.028, 16:05:22.357, 1563221122357
253, -65.27, 156.80, -187500.02, -187500.02, -187500.02, 187500.00, -187500.02, -187500.02, 0.000, 0.000, 0.000, 16:05:22.357, 1563221122357
254, -112.12, 110.98, -187500.02, -187500.02, -187500.02, 187500.00, -187500.02, -187500.02, 0.000, 0.000, 0.000, 16:05:22.357, 1563221122357
255, -151.23, 73.20, -187500.02, -187500.02, -187500.02, 187500.00, -187500.02, -187500.02, 0.000, 0.000, 0.000, 16:05:22.357, 1563221122357
0, -106.35, 117.59, -187500.02, -187500.02, -187500.02, 187500.00, -187500.02, -187500.02, 0.000, 0.000, 0.000, 16:05:22.357, 1563221122357
1, -63.05, 159.06, -187500.02, -187500.02, -187500.02, 187500.00, -187500.02, -187500.02, 0.000, 0.000, 0.000, 16:05:22.357, 1563221122357
2, -100.78, 122.02, -187500.02, -187500.02, -187500.02, 187500.00, -187500.02, -187500.02, 0.000, 0.000, 0.000, 16:05:22.357, 1563221122357
3, -150.25, 74.23, -187500.02, -187500.02, -187500.02, 187500.00, -187500.02, -187500.02, 0.000, 0.000, 0.000, 16:05:22.357, 1563221122357
4, -117.46, 106.51, -187500.02, -187500.02, -187500.02, 187500.00, -187500.02, -187500.02, 0.000, 0.000, 0.000, 16:05:22.357, 1563221122357
5, -63.90, 158.05, -187500.02, -187500.02, -187500.02, 187500.00, -187500.02, -187500.02, 0.000, 0.000, 0.000, 16:05:22.357, 1563221122357
6, -90.23, 132.21, -187500.02, -187500.02, -187500.02, 187500.00, -187500.02, -187500.02, 0.018, 0.062, 1.020, 16:05:22.357, 1563221122357
7, -145.98, 78.16, -187500.02, -187500.02, -187500.02, 187500.00, -187500.02, -187500.02, 0.000, 0.000, 0.000, 16:05:22.357, 1563221122357
8, -128.77, 95.35, -187500.02, -187500.02, -187500.02, 187500.00, -187500.02, -187500.02, 0.000, 0.000, 0.000, 16:05:22.357, 1563221122357
9, -68.60, 153.67, -187500.02, -187500.02, -187500.02, 187500.00, -187500.02, -187500.02, 0.000, 0.000, 0.000, 16:05:22.357, 1563221122357
10, -81.61, 140.86, -187500.02, -187500.02, -187500.02, 187500.00, -187500.02, -187500.02, 0.000, 0.000, 0.000, 16:05:22.358, 1563221122358
11, -139.32, 84.51, -187500.02, -187500.02, -187500.02, 187500.00, -187500.02, -187500.02, 0.000, 0.000, 0.000, 16:05:22.358, 1563221122358
12, -138.07, 86.30, -187500.02, -187500.02, -187500.02, 187500.00, -187500.02, -187500.02, 0.000, 0.000, 0.000, 16:05:22.358, 1563221122358
13, -75.39, 147.32, -187500.02, -187500.02, -187500.02, 187500.00, -187500.02, -187500.02, 0.000, 0.000, 0.000, 16:05:22.358, 1563221122358
14, -73.74, 148.28, -187500.02, -187500.02, -187500.02, 187500.00, -187500.02, -187500.02, 0.000, 0.000, 0.000, 16:05:22.358, 1563221122358
15, -131.05, 92.51, -187500.02, -187500.02, -187500.02, 187500.00, -187500.02, -187500.02, 0.000, 0.000, 0.000, 16:05:22.358, 1563221122358
16, -145.17, 79.26, -187500.02, -187500.02, -187500.02, 187500.00, -187500.02, -187500.02, 0.000, 0.000, 0.000, 16:05:22.358, 1563221122358
17, -84.00, 138.92, -187500.02, -187500.02, -187500.02, 187500.00, -187500.02, -187500.02, 0.020, 0.062, 1.018, 16:05:22.358, 1563221122358
18, -67.99, 153.85, -187500.02, -187500.02, -187500.02, 187500.00, -187500.02, -187500.02, 0.000, 0.000, 0.000, 16:05:22.358, 1563221122358
19, -121.30, 101.75, -187500.02, -187500.02, -187500.02, 187500.00, -187500.02, -187500.02, 0.000, 0.000, 0.000, 16:05:22.358, 1563221122358
20, -149.35, 75.17, -187500.02, -187500.02, -187500.02, 187500.00, -187500.02, -187500.02, 0.000, 0.000, 0.000, 16:05:22.358, 1563221122358
21, -94.70, 128.50, -187500.02, -187500.02, -187500.02, 187500.00, -187500.02, -187500.02, 0.000, 0.000, 0.000, 16:05:22.358, 1563221122358
22, -64.40, 157.42, -187500.02, -187500.02, -187500.02, 187500.00, -187500.02, -187500.02, 0.000, 0.000, 0.000, 16:05:22.358, 1563221122358
23, -110.82, 111.74, -187500.02, -187500.02, -187500.02, 187500.00, -187500.02, -187500.02, 0.000, 0.000, 0.000, 16:05:22.358, 1563221122358
24, -151.21, 72.91, -187500.02, -187500.02, -187500.02, 187500.00, -187500.02, -187500.02, 0.000, 0.000, 0.000, 16:05:22.358, 1563221122358
25, -106.48, 117.10, -187500.02, -187500.02, -187500.02, 187500.00, -187500.02, -187500.02, 0.000, 0.000, 0.000, 16:05:22.358, 1563221122358
26, -62.96, 159.21, -187500.02, -187500.02, -187500.02, 187500.00, -187500.02, -187500.02, 0.000, 0.000, 0.000, 16:05:22.358, 1563221122358
27, -100.11, 122.51, -187500.02, -187500.02, -187500.02, 187500.00, -187500.02, -187500.02, 0.018, 0.056, 1.020, 16:05:22.358, 1563221122358
28, -150.14, 73.83, -187500.02, -187500.02, -187500.02, 187500.00, -187500.02, -187500.02, 0.000, 0.000, 0.000, 16:05:22.358, 1563221122358
29, -118.22, 105.48, -187500.02, -187500.02, -187500.02, 187500.00, -187500.02, -187500.02, 0.000, 0.000, 0.000, 16:05:22.358, 1563221122358
30, -64.51, 157.71, -187500.02, -187500.02, -187500.02, 187500.00, -187500.02, -187500.02, 0.000, 0.000, 0.000, 16:05:22.359, 1563221122359
31, -89.99, 132.57, -187500.02, -187500.02, -187500.02, 187500.00, -187500.02, -187500.02, 0.000, 0.000, 0.000, 16:05:22.359, 1563221122359
32, -145.78, 78.37, -187500.02, -187500.02, -187500.02, 187500.00, -187500.02, -187500.02, 0.000, 0.000, 0.000, 16:05:22.359, 1563221122359
33, -129.39, 94.73, -187500.02, -187500.02, -187500.02, 187500.00, -187500.02, -187500.02, 0.000, 0.000, 0.000, 16:05:22.359, 1563221122359
34, -69.00, 152.95, -187500.02, -187500.02, -187500.02, 187500.00, -187500.02, -187500.02, 0.000, 0.000, 0.000, 16:05:22.359, 1563221122359
35, -80.60, 141.58, -187500.02, -187500.02, -187500.02, 187500.00, -187500.02, -187500.02, 0.000, 0.000, 0.000, 16:05:22.359, 1563221122359
36, -138.85, 84.80, -187500.02, -187500.02, -187500.02, 187500.00, -187500.02, -187500.02, 0.000, 0.000, 0.000, 16:05:22.359, 1563221122359
37, -138.63, 85.76, -187500.02, -187500.02, -187500.02, 187500.00, -187500.02, -187500.02, 0.022, 0.056, 1.022, 16:05:22.359, 1563221122359
38, -75.79, 146.56, -187500.02, -187500.02, -187500.02, 187500.00, -187500.02, -187500.02, 0.000, 0.000, 0.000, 16:05:22.359, 1563221122359
39, -72.80, 148.73, -187500.02, -187500.02, -187500.02, 187500.00, -187500.02, -187500.02, 0.000, 0.000, 0.000, 16:05:22.359, 1563221122359
40, -130.20, 93.14, -187500.02, -187500.02, -187500.02, 187500.00, -187500.02, -187500.02, 0.000, 0.000, 0.000, 16:05:22.359, 1563221122359
41, -145.73, 78.77, -187500.02, -187500.02, -187500.02, 187500.00, -187500.02, -187500.02, 0.000, 0.000, 0.000, 16:05:22.359, 1563221122359
42, -85.18, 137.66, -187500.02, -187500.02, -187500.02, 187500.00, -187500.02, -187500.02, 0.000, 0.000, 0.000, 16:05:22.359, 1563221122359
43, -67.41, 154.45, -187500.02, -187500.02, -187500.02, 187500.00, -187500.02, -187500.02, 0.000, 0.000, 0.000, 16:05:22.359, 1563221122359
44, -120.21, 102.82, -187500.02, -187500.02, -187500.02, 187500.00, -187500.02, -187500.02, 0.000, 0.000, 0.000, 16:05:22.359, 1563221122359
45, -150.27, 74.43, -187500.02, -187500.02, -187500.02, 187500.00, -187500.02, -187500.02, 0.000, 0.000, 0.000, 16:05:22.359, 1563221122359
46, -96.49, 127.05, -187500.02, -187500.02, -187500.02, 187500.00, -187500.02, -187500.02, 0.000, 0.000, 0.000, 16:05:22.359, 1563221122359
47, -63.64, 157.94, -187500.02, -187500.02, -187500.02, 187500.00, -187500.02, -187500.02, 0.024, 0.058, 1.032, 16:05:22.359, 1563221122359
48, -109.17, 113.12, -187500.02, -187500.02, -187500.02, 187500.00, -187500.02, -187500.02, 0.000, 0.000, 0.000, 16:05:22.359, 1563221122359
49, -151.46, 72.49, -187500.02, -187500.02, -187500.02, 187500.00, -187500.02, -187500.02, 0.000, 0.000, 0.000, 16:05:22.359, 1563221122359
50, -108.07, 115.87, -187500.02, -187500.02, -187500.02, 187500.00, -187500.02, -187500.02, 0.000, 0.000, 0.000, 16:05:22.359, 1563221122359
51, -62.85, 159.21, -187500.02, -187500.02, -187500.02, 187500.00, -187500.02, -187500.02, 0.000, 0.000, 0.000, 16:05:22.359, 1563221122359
52, -98.50, 123.25, -187500.02, -187500.02, -187500.02, 187500.00, -187500.02, -187500.02, 0.000, 0.000, 0.000, 16:05:22.359, 1563221122359
53, -150.02, 73.81, -187500.02, -187500.02, -187500.02, 187500.00, -187500.02, -187500.02, 0.000, 0.000, 0.000, 16:05:22.359, 1563221122359
54, -119.47, 104.70, -187500.02, -187500.02, -187500.02, 187500.00, -187500.02, -187500.02, 0.000, 0.000, 0.000, 16:05:22.359, 1563221122359
55, -64.60, 157.38, -187500.02, -187500.02, -187500.02, 187500.00, -187500.02, -187500.02, 0.000, 0.000, 0.000, 16:05:22.359, 1563221122359
56, -88.67, 133.57, -187500.02, -187500.02, -187500.02, 187500.00, -187500.02, -187500.02, 0.000, 0.000, 0.000, 16:05:22.359, 1563221122359
57, -145.15, 78.61, -187500.02, -187500.02, -187500.02, 187500.00, -187500.02, -187500.02, 0.020, 0.058, 1.028, 16:05:22.360, 1563221122360
58, -130.24, 94.01, -187500.02, -187500.02, -187500.02, 187500.00, -187500.02, -187500.02, 0.000, 0.000, 0.000, 16:05:22.360, 1563221122360
59, -69.54, 153.15, -187500.02, -187500.02, -187500.02, 187500.00, -187500.02, -187500.02, 0.000, 0.000, 0.000, 16:05:22.360, 1563221122360
60, -79.75, 142.22, -187500.02, -187500.02, -187500.02, 187500.00, -187500.02, -187500.02, 0.000, 0.000, 0.000, 16:05:22.360, 1563221122360
61, -138.18, 85.25, -187500.02, -187500.02, -187500.02, 187500.00, -187500.02, -187500.02, 0.000, 0.000, 0.000, 16:05:22.360, 1563221122360
62, -140.15, 84.06, -187500.02, -187500.02, -187500.02, 187500.00, -187500.02, -187500.02, 0.000, 0.000, 0.000, 16:05:22.360, 1563221122360
63, -76.49, 146.05, -187500.02, -187500.02, -187500.02, 187500.00, -187500.02, -187500.02, 0.000, 0.000, 0.000, 16:05:22.360, 1563221122360
64, -72.44, 149.56, -187500.02, -187500.02, -187500.02, 187500.00, -187500.02, -187500.02, 0.000, 0.000, 0.000, 16:05:22.360, 1563221122360
65, -129.44, 93.74, -187500.02, -187500.02, -187500.02, 187500.00, -187500.02, -187500.02, 0.000, 0.000, 0.000, 16:05:22.360, 1563221122360
66, -146.31, 77.87, -187500.02, -187500.02, -187500.02, 187500.00, -187500.02, -187500.02, 0.000, 0.000, 0.000, 16:05:22.360, 1563221122360
67, -85.99, 136.97, -187500.02, -187500.02, -187500.02, 187500.00, -187500.02, -187500.02, 0.000, 0.000, 0.000, 16:05:22.360, 1563221122360
68, -67.19, 155.03, -187500.02, -187500.02, -187500.02, 187500.00, -187500.02, -187500.02, 0.014, 0.058, 1.018, 16:05:22.360, 1563221122360
69, -119.83, 103.62, -187500.02, -187500.02, -187500.02, 187500.00, -187500.02, -187500.02, 0.000, 0.000, 0.000, 16:05:22.360, 1563221122360
70, -150.29, 74.45, -187500.02, -187500.02, -187500.02, 187500.00, -187500.02, -187500.02, 0.000, 0.000, 0.000, 16:05:22.360, 1563221122360
71, -96.69, 126.71, -187500.02, -187500.02, -187500.02, 187500.00, -187500.02, -187500.02, 0.000, 0.000, 0.000, 16:05:22.360, 1563221122360
72, -63.23, 158.56, -187500.02, -187500.02, -187500.02, 187500.00, -187500.02, -187500.02, 0.000, 0.000, 0.000, 16:05:22.360, 1563221122360
73, -108.56, 113.93, -187500.02, -187500.02, -187500.02, 187500.00, -187500.02, -187500.02, 0.000, 0.000, 0.000, 16:05:22.360, 1563221122360
74, -151.37, 72.78, -187500.02, -187500.02, -187500.02, 187500.00, -187500.02, -187500.02, 0.000, 0.000, 0.000, 16:05:22.360, 1563221122360
75, -108.85, 114.58, -187500.02, -187500.02, -187500.02, 187500.00, -187500.02, -187500.02, 0.000, 0.000, 0.000, 16:05:22.360, 1563221122360
76, -63.28, 158.83, -187500.02, -187500.02, -187500.02, 187500.00, -187500.02, -187500.02, 0.000, 0.000, 0.000, 16:05:22.360, 1563221122360
77, -97.92, 124.25, -187500.02, -187500.02, -187500.02, 187500.00, -187500.02, -187500.02, 0.000, 0.000, 0.000, 16:05:22.360, 1563221122360
78, -149.15, 74.86, -187500.02, -187500.02, -187500.02, 187500.00, -187500.02, -187500.02, 0.016, 0.056, 1.030, 16:05:22.360, 1563221122360
79, -120.92, 103.02, -187500.02, -187500.02, -187500.02, 187500.00, -187500.02, -187500.02, 0.000, 0.000, 0.000, 16:05:22.360, 1563221122360
80, -65.20, 157.11, -187500.02, -187500.02, -187500.02, 187500.00, -187500.02, -187500.02, 0.000, 0.000, 0.000, 16:05:22.360, 1563221122360
81, -88.18, 134.13, -187500.02, -187500.02, -187500.02, 187500.00, -187500.02, -187500.02, 0.000, 0.000, 0.000, 16:05:22.360, 1563221122360
82, -144.79, 79.26, -187500.02, -187500.02, -187500.02, 187500.00, -187500.02, -187500.02, 0.000, 0.000, 0.000, 16:05:22.360, 1563221122360
83, -130.80, 93.77, -187500.02, -187500.02, -187500.02, 187500.00, -187500.02, -187500.02, 0.000, 0.000, 0.000, 16:05:22.360, 1563221122360
84, -69.94, 152.42, -187500.02, -187500.02, -187500.02, 187500.00, -187500.02, -187500.02, 0.000, 0.000, 0.000, 16:05:22.360, 1563221122360
85, -79.46, 142.67, -187500.02, -187500.02, -187500.02, 187500.00, -187500.02, -187500.02, 0.000, 0.000, 0.000, 16:05:22.360, 1563221122360
86, -137.73, 86.14, -187500.02, -187500.02, -187500.02, 187500.00, -187500.02, -187500.02, 0.000, 0.000, 0.000, 16:05:22.360, 1563221122360
87, -139.90, 84.62, -187500.02, -187500.02, -187500.02, 187500.00, -187500.02, -187500.02, 0.000, 0.000, 0.000, 16:05:22.360, 1563221122360
88, -77.05, 145.58, -187500.02, -187500.02, -187500.02, 187500.00, -187500.02, -187500.02, 0.022, 0.056, 1.032, 16:05:22.360, 1563221122360
89, -71.93, 149.89, -187500.02, -187500.02, -187500.02, 187500.00, -187500.02, -187500.02, 0.000, 0.000, 0.000, 16:05:22.360, 1563221122360
90, -128.43, 94.68, -187500.02, -187500.02, -187500.02, 187500.00, -187500.02, -187500.02, 0.000, 0.000, 0.000, 16:05:22.360, 1563221122360
91, -146.67, 77.63, -187500.02, -187500.02, -187500.02, 187500.00, -187500.02, -187500.02, 0.000, 0.000, 0.000, 16:05:22.360, 1563221122360
92, -87.15, 135.97, -187500.02, -187500.02, -187500.02, 187500.00, -187500.02, -187500.02, 0.000, 0.000, 0.000, 16:05:22.361, 1563221122361
93, -66.70, 155.32, -187500.02, -187500.02, -187500.02, 187500.00, -187500.02, -187500.02, 0.000, 0.000, 0.000, 16:05:22.361, 1563221122361
94, -118.42, 104.49, -187500.02, -187500.02, -187500.02, 187500.00, -187500.02, -187500.02, 0.000, 0.000, 0.000, 16:05:22.361, 1563221122361
95, -150.81, 73.60, -187500.02, -187500.02, -187500.02, 187500.00, -187500.02, -187500.02, 0.000, 0.000, 0.000, 16:05:22.361, 1563221122361
96, -98.28, 125.13, -187500.02, -187500.02, -187500.02, 187500.00, -187500.02, -187500.02, 0.000, 0.000, 0.000, 16:05:22.361, 1563221122361
97, -63.81, 158.14, -187500.02, -187500.02, -187500.02, 187500.00, -187500.02, -187500.02, 0.000, 0.000, 0.000, 16:05:22.361, 1563221122361
98, -107.71, 115.07, -187500.02, -187500.02, -187500.02, 187500.00, -187500.02, -187500.02, 0.024, 0.058, 1.030, 16:05:22.361, 1563221122361
99, -151.23, 73.07, -187500.02, -187500.02, -187500.02, 187500.00, -187500.02, -187500.02, 0.000, 0.000, 0.000, 16:05:22.361, 1563221122361
100, -109.68, 114.02, -187500.02, -187500.02, -187500.02, 187500.00, -187500.02, -187500.02, 0.000, 0.000, 0.000, 16:05:22.361, 1563221122361
101, -63.08, 159.01, -187500.02, -187500.02, -187500.02, 187500.00, -187500.02, -187500.02, 0.000, 0.000, 0.000, 16:05:22.361, 1563221122361
102, -97.70, 124.68, -187500.02, -187500.02, -187500.02, 187500.00, -187500.02, -187500.02, 0.000, 0.000, 0.000, 16:05:22.361, 1563221122361
103, -149.58, 74.48, -187500.02, -187500.02, -187500.02, 187500.00, -187500.02, -187500.02, 0.000, 0.000, 0.000, 16:05:22.361, 1563221122361
104, -121.97, 102.13, -187500.02, -187500.02, -187500.02, 187500.00, -187500.02, -187500.02, 0.000, 0.000, 0.000, 16:05:22.361, 1563221122361
105, -65.76, 156.51, -187500.02, -187500.02, -187500.02, 187500.00, -187500.02, -187500.02, 0.000, 0.000, 0.000, 16:05:22.837, 1563221122837
106, -87.44, 134.42, -187500.02, -187500.02, -187500.02, 187500.00, -187500.02, -187500.02, 0.000, 0.000, 0.000, 16:05:22.837, 1563221122837
107, -144.30, 79.64, -187500.02, -187500.02, -187500.02, 187500.00, -187500.02, -187500.02, 0.000, 0.000, 0.000, 16:05:22.838, 1563221122838
108, -131.81, 92.60, -187500.02, -187500.02, -187500.02, 187500.00, -187500.02, -187500.02, 0.022, 0.064, 1.028, 16:05:22.838, 1563221122838
109, -70.32, 151.88, -187500.02, -187500.02, -187500.02, 187500.00, -187500.02, -187500.02, 0.000, 0.000, 0.000, 16:05:22.838, 1563221122838
110, -78.99, 143.10, -187500.02, -187500.02, -187500.02, 187500.00, -187500.02, -187500.02, 0.000, 0.000, 0.000, 16:05:22.838, 1563221122838
111, -137.11, 86.81, -187500.02, -187500.02, -187500.02, 187500.00, -187500.02, -187500.02, 0.000, 0.000, 0.000, 16:05:22.838, 1563221122838
112, -140.44, 83.89, -187500.02, -187500.02, -187500.02, 187500.00, -187500.02, -187500.02, 0.000, 0.000, 0.000, 16:05:22.838, 1563221122838
113, -78.05, 144.97, -187500.02, -187500.02, -187500.02, 187500.00, -187500.02, -187500.02, 0.000, 0.000, 0.000, 16:05:22.838, 1563221122838
114, -71.50, 150.34, -187500.02, -187500.02, -187500.02, 187500.00, -187500.02, -187500.02, 0.000, 0.000, 0.000, 16:05:22.838, 1563221122838
115, -127.78, 95.37, -187500.02, -187500.02, -187500.02, 187500.00, -187500.02, -187500.02, 0.000, 0.000, 0.000, 16:05:22.838, 1563221122838
116, -147.01, 77.40, -187500.02, -187500.02, -187500.02, 187500.00, -187500.02, -187500.02, 0.000, 0.000, 0.000, 16:05:22.838, 1563221122838
117, -87.37, 135.65, -187500.02, -187500.02, -187500.02, 187500.00, -187500.02, -187500.02, 0.000, 0.000, 0.000, 16:05:22.838, 1563221122838
118, -65.98, 156.19, -187500.02, -187500.02, -187500.02, 187500.00, -187500.02, -187500.02, 0.020, 0.060, 1.028, 16:05:22.838, 1563221122838
119, -117.26, 105.81, -187500.02, -187500.02, -187500.02, 187500.00, -187500.02, -187500.02, 0.000, 0.000, 0.000, 16:05:22.838, 1563221122838
120, -150.43, 74.39, -187500.02, -187500.02, -187500.02, 187500.00, -187500.02, -187500.02, 0.000, 0.000, 0.000, 16:05:22.838, 1563221122838
121, -99.06, 124.75, -187500.02, -187500.02, -187500.02, 187500.00, -187500.02, -187500.02, 0.000, 0.000, 0.000, 16:05:22.838, 1563221122838
122, -63.52, 158.50, -187500.02, -187500.02, -187500.02, 187500.00, -187500.02, -187500.02, 0.000, 0.000, 0.000, 16:05:22.838, 1563221122838
123, -107.13, 115.45, -187500.02, -187500.02, -187500.02, 187500.00, -187500.02, -187500.02, 0.000, 0.000, 0.000, 16:05:22.838, 1563221122838
124, -151.12, 73.18, -187500.02, -187500.02, -187500.02, 187500.00, -187500.02, -187500.02, 0.000, 0.000, 0.000, 16:05:22.838, 1563221122838
125, -110.71, 112.65, -187500.02, -187500.02, -187500.02, 187500.00, -187500.02, -187500.02, 0.000, 0.000, 0.000, 16:05:22.838, 1563221122838
126, -63.12, 158.88, -187500.02, -187500.02, -187500.02, 187500.00, -187500.02, -187500.02, 0.000, 0.000, 0.000, 16:05:22.838, 1563221122838
127, -96.38, 125.91, -187500.02, -187500.02, -187500.02, 187500.00, -187500.02, -187500.02, 0.000, 0.000, 0.000, 16:05:22.838, 1563221122838
128, -148.88, 75.12, -187500.02, -187500.02, -187500.02, 187500.00, -187500.02, -187500.02, 0.000, 0.000, 0.000, 16:05:22.838, 1563221122838
129, -121.86, 102.10, -187500.02, -187500.02, -187500.02, 187500.00, -187500.02, -187500.02, 0.022, 0.062, 1.022, 16:05:22.838, 1563221122838
130, -65.51, 156.15, -187500.02, -187500.02, -187500.02, 187500.00, -187500.02, -187500.02, 0.000, 0.000, 0.000, 16:05:22.838, 1563221122838
131, -86.64, 135.03, -187500.02, -187500.02, -187500.02, 187500.00, -187500.02, -187500.02, 0.000, 0.000, 0.000, 16:05:22.838, 1563221122838
132, -143.68, 79.93, -187500.02, -187500.02, -187500.02, 187500.00, -187500.02, -187500.02, 0.000, 0.000, 0.000, 16:05:22.838, 1563221122838
133, -132.41, 91.60, -187500.02, -187500.02, -187500.02, 187500.00, -187500.02, -187500.02, 0.000, 0.000, 0.000, 16:05:22.838, 1563221122838
134, -71.12, 151.19, -187500.02, -187500.02, -187500.02, 187500.00, -187500.02, -187500.02, 0.000, 0.000, 0.000, 16:05:22.838, 1563221122838
135, -78.39, 143.70, -187500.02, -187500.02, -187500.02, 187500.00, -187500.02, -187500.02, 0.000, 0.000, 0.000, 16:05:22.838, 1563221122838
136, -136.48, 87.35, -187500.02, -187500.02, -187500.02, 187500.00, -187500.02, -187500.02, 0.000, 0.000, 0.000, 16:05:22.838, 1563221122838
137, -141.15, 83.01, -187500.02, -187500.02, -187500.02, 187500.00, -187500.02, -187500.02, 0.000, 0.000, 0.000, 16:05:22.838, 1563221122838
138, -78.61, 144.03, -187500.02, -187500.02, -187500.02, 187500.00, -187500.02, -187500.02, 0.000, 0.000, 0.000, 16:05:22.838, 1563221122838
139, -70.83, 151.16, -187500.02, -187500.02, -187500.02, 187500.00, -187500.02, -187500.02, 0.024, 0.060, 1.030, 16:05:22.838, 1563221122838
140, -126.31, 96.67, -187500.02, -187500.02, -187500.02, 187500.00, -187500.02, -187500.02, 0.000, 0.000, 0.000, 16:05:22.839, 1563221122839
141, -147.10, 77.09, -187500.02, -187500.02, -187500.02, 187500.00, -187500.02, -187500.02, 0.000, 0.000, 0.000, 16:05:22.839, 1563221122839
142, -88.89, 134.07, -187500.02, -187500.02, -187500.02, 187500.00, -187500.02, -187500.02, 0.000, 0.000, 0.000, 16:05:22.839, 1563221122839
143, -66.38, 155.37, -187500.02, -187500.02, -187500.02, 187500.00, -187500.02, -187500.02, 0.000, 0.000, 0.000, 16:05:22.839, 1563221122839
144, -116.05, 106.35, -187500.02, -187500.02, -187500.02, 187500.00, -187500.02, -187500.02, 0.000, 0.000, 0.000, 16:05:22.839, 1563221122839
145, -150.58, 73.76, -187500.02, -187500.02, -187500.02, 187500.00, -187500.02, -187500.02, 0.000, 0.000, 0.000, 16:05:22.839, 1563221122839
146, -100.11, 123.14, -187500.02, -187500.02, -187500.02, 187500.00, -187500.02, -187500.02, 0.000, 0.000, 0.000, 16:05:22.839, 1563221122839
147, -63.93, 157.98, -187500.02, -187500.02, -187500.02, 187500.00, -187500.02, -187500.02, 0.000, 0.000, 0.000, 16:05:22.839, 1563221122839
148, -105.92, 116.18, -187500.02, -187500.02, -187500.02, 187500.00, -187500.02, -187500.02, 0.000, 0.000, 0.000, 16:05:22.839, 1563221122839
149, -150.74, 73.51, -187500.02, -187500.02, -187500.02, 187500.00, -187500.02, -187500.02, 0.022, 0.054, 1.028, 16:05:22.839, 1563221122839
150, -111.62, 112.12, -187500.02, -187500.02, -187500.02, 187500.00, -187500.02, -187500.02, 0.000, 0.000, 0.000, 16:05:22.839, 1563221122839
151, -63.17, 158.85, -187500.02, -187500.02, -187500.02, 187500.00, -187500.02, -187500.02, 0.000, 0.000, 0.000, 16:05:22.839, 1563221122839
152, -95.33, 126.42, -187500.02, -187500.02, -187500.02, 187500.00, -187500.02, -187500.02, 0.000, 0.000, 0.000, 16:05:22.839, 1563221122839
153, -148.59, 75.44, -187500.02, -187500.02, -187500.02, 187500.00, -187500.02, -187500.02, 0.000, 0.000, 0.000, 16:05:22.839, 1563221122839
154, -122.85, 101.14, -187500.02, -187500.02, -187500.02, 187500.00, -187500.02, -187500.02, 0.000, 0.000, 0.000, 16:05:22.839, 1563221122839
155, -65.89, 156.26, -187500.02, -187500.02, -187500.02, 187500.00, -187500.02, -187500.02, 0.000, 0.000, 0.000, 16:05:22.839, 1563221122839
156, -86.41, 135.70, -187500.02, -187500.02, -187500.02, 187500.00, -187500.02, -187500.02, 0.000, 0.000, 0.000, 16:05:22.839, 1563221122839
157, -142.89, 80.67, -187500.02, -187500.02, -187500.02, 187500.00, -187500.02, -187500.02, 0.000, 0.000, 0.000, 16:05:22.839, 1563221122839
158, -133.02, 90.93, -187500.02, -187500.02, -187500.02, 187500.00, -187500.02, -187500.02, 0.000, 0.000, 0.000, 16:05:22.839, 1563221122839
159, -71.35, 151.14, -187500.02, -187500.02, -187500.02, 187500.00, -187500.02, -187500.02, 0.018, 0.054, 1.028, 16:05:22.839, 1563221122839
160, -77.16, 144.88, -187500.02, -187500.02, -187500.02, 187500.00, -187500.02, -187500.02, 0.000, 0.000, 0.000, 16:05:22.839, 1563221122839
161, -135.83, 87.82, -187500.02, -187500.02, -187500.02, 187500.00, -187500.02, -187500.02, 0.000, 0.000, 0.000, 16:05:22.839, 1563221122839
162, -141.78, 82.28, -187500.02, -187500.02, -187500.02, 187500.00, -187500.02, -187500.02, 0.000, 0.000, 0.000, 16:05:22.839, 1563221122839
163, -78.92, 143.59, -187500.02, -187500.02, -187500.02, 187500.00, -187500.02, -187500.02, 0.000, 0.000, 0.000, 16:05:22.839, 1563221122839
164, -70.34, 151.72, -187500.02, -187500.02, -187500.02, 187500.00, -187500.02, -187500.02, 0.000, 0.000, 0.000, 16:05:22.839, 1563221122839
165, -125.89, 97.03, -187500.02, -187500.02, -187500.02, 187500.00, -187500.02, -187500.02, 0.000, 0.000, 0.000, 16:05:22.839, 1563221122839
166, -147.23, 76.64, -187500.02, -187500.02, -187500.02, 187500.00, -187500.02, -187500.02, 0.000, 0.000, 0.000, 16:05:22.839, 1563221122839
167, -89.63, 133.02, -187500.02, -187500.02, -187500.02, 187500.00, -187500.02, -187500.02, 0.000, 0.000, 0.000, 16:05:22.839, 1563221122839
168, -65.92, 155.43, -187500.02, -187500.02, -187500.02, 187500.00, -187500.02, -187500.02, 0.000, 0.000, 0.000, 16:05:22.839, 1563221122839
169, -115.36, 107.22, -187500.02, -187500.02, -187500.02, 187500.00, -187500.02, -187500.02, 0.020, 0.062, 1.026, 16:05:22.839, 1563221122839
170, -150.78, 73.34, -187500.02, -187500.02, -187500.02, 187500.00, -187500.02, -187500.02, 0.000, 0.000, 0.000, 16:05:22.839, 1563221122839
171, -101.05, 122.17, -187500.02, -187500.02, -187500.02, 187500.00, -187500.02, -187500.02, 0.000, 0.000, 0.000, 16:05:22.839, 1563221122839
172, -63.26, 158.45, -187500.02, -187500.02, -187500.02, 187500.00, -187500.02, -187500.02, 0.000, 0.000, 0.000, 16:05:22.839, 1563221122839
173, -105.08, 117.23, -187500.02, -187500.02, -187500.02, 187500.00, -187500.02, -187500.02, 0.000, 0.000, 0.000, 16:05:22.839, 1563221122839
174, -151.21, 72.91, -187500.02, -187500.02, -187500.02, 187500.00, -187500.02, -187500.02, 0.000, 0.000, 0.000, 16:05:22.840, 1563221122840
175, -112.59, 110.95, -187500.02, -187500.02, -187500.02, 187500.00, -187500.02, -187500.02, 0.000, 0.000, 0.000, 16:05:22.840, 1563221122840
176, -63.46, 158.47, -187500.02, -187500.02, -187500.02, 187500.00, -187500.02, -187500.02, 0.000, 0.000, 0.000, 16:05:22.840, 1563221122840
177, -94.79, 127.65, -187500.02, -187500.02, -187500.02, 187500.00, -187500.02, -187500.02, 0.000, 0.000, 0.000, 16:05:22.840, 1563221122840
178, -148.50, 75.57, -187500.02, -187500.02, -187500.02, 187500.00, -187500.02, -187500.02, 0.000, 0.000, 0.000, 16:05:22.840, 1563221122840
179, -123.96, 100.05, -187500.02, -187500.02, -187500.02, 187500.00, -187500.02, -187500.02, 0.000, 0.000, 0.000, 16:05:22.840, 1563221122840
180, -66.27, 155.86, -187500.02, -187500.02, -187500.02, 187500.00, -187500.02, -187500.02, 0.020, 0.064, 1.020, 16:05:22.840, 1563221122840
181, -84.85, 136.82, -187500.02, -187500.02, -187500.02, 187500.00, -187500.02, -187500.02, 0.000, 0.000, 0.000, 16:05:22.840, 1563221122840
182, -142.96, 80.62, -187500.02, -187500.02, -187500.02, 187500.00, -187500.02, -187500.02, 0.000, 0.000, 0.000, 16:05:22.840, 1563221122840
183, -134.65, 89.74, -187500.02, -187500.02, -187500.02, 187500.00, -187500.02, -187500.02, 0.000, 0.000, 0.000, 16:05:22.840, 1563221122840
184, -72.24, 150.49, -187500.02, -187500.02, -187500.02, 187500.00, -187500.02, -187500.02, 0.000, 0.000, 0.000, 16:05:22.840, 1563221122840
185, -76.91, 144.77, -187500.02, -187500.02, -187500.02, 187500.00, -187500.02, -187500.02, 0.000, 0.000, 0.000, 16:05:22.840, 1563221122840
186, -134.80, 88.62, -187500.02, -187500.02, -187500.02, 187500.00, -187500.02, -187500.02, 0.000, 0.000, 0.000, 16:05:22.840, 1563221122840
187, -142.38, 81.79, -187500.02, -187500.02, -187500.02, 187500.00, -187500.02, -187500.02, 0.000, 0.000, 0.000, 16:05:22.840, 1563221122840
188, -79.93, 142.40, -187500.02, -187500.02, -187500.02, 187500.00, -187500.02, -187500.02, 0.000, 0.000, 0.000, 16:05:22.840, 1563221122840
189, -70.05, 151.39, -187500.02, -187500.02, -187500.02, 187500.00, -187500.02, -187500.02, 0.000, 0.000, 0.000, 16:05:22.840, 1563221122840
190, -125.44, 97.54, -187500.02, -187500.02, -187500.02, 187500.00, -187500.02, -187500.02, 0.022, 0.062, 1.022, 16:05:22.840, 1563221122840
191, -147.72, 76.04, -187500.02, -187500.02, -187500.02, 187500.00, -187500.02, -187500.02, 0.000, 0.000, 0.000, 16:05:22.840, 1563221122840
192, -90.17, 132.46, -187500.02, -187500.02, -187500.02, 187500.00, -187500.02, -187500.02, 0.000, 0.000, 0.000, 16:05:22.840, 1563221122840
193, -65.07, 156.40, -187500.02, -187500.02, -187500.02, 187500.00, -187500.02, -187500.02, 0.000, 0.000, 0.000, 16:05:22.840, 1563221122840
194, -115.13, 107.47, -187500.02, -187500.02, -187500.02, 187500.00, -187500.02, -187500.02, 0.000, 0.000, 0.000, 16:05:22.840, 1563221122840
195, -150.81, 73.16, -187500.02, -187500.02, -187500.02, 187500.00, -187500.02, -187500.02, 0.000, 0.000, 0.000, 16:05:22.840, 1563221122840
196, -101.86, 121.68, -187500.02, -187500.02, -187500.02, 187500.00, -187500.02, -187500.02, 0.000, 0.000, 0.000, 16:05:22.840, 1563221122840
197, -62.99, 158.90, -187500.02, -187500.02, -187500.02, 187500.00, -187500.02, -187500.02, 0.000, 0.000, 0.000, 16:05:22.840, 1563221122840
198, -104.58, 117.95, -187500.02, -187500.02, -187500.02, 187500.00, -187500.02, -187500.02, 0.000, 0.000, 0.000, 16:05:22.841, 1563221122841
199, -150.47, 73.47, -187500.02, -187500.02, -187500.02, 187500.00, -187500.02, -187500.02, 0.000, 0.000, 0.000, 16:05:22.841, 1563221122841
200, -113.26, 110.28, -187500.02, -187500.02, -187500.02, 187500.00, -187500.02, -187500.02, 0.018, 0.060, 1.028, 16:05:22.841, 1563221122841
201, -63.86, 157.89, -187500.02, -187500.02, -187500.02, 187500.00, -187500.02, -187500.02, 0.000, 0.000, 0.000, 16:05:22.841, 1563221122841
202, -94.41, 127.65, -187500.02, -187500.02, -187500.02, 187500.00, -187500.02, -187500.02, 0.000, 0.000, 0.000, 16:05:22.841, 1563221122841
203, -147.79, 76.20, -187500.02, -187500.02, -187500.02, 187500.00, -187500.02, -187500.02, 0.000, 0.000, 0.000, 16:05:22.841, 1563221122841
204, -124.88, 99.55, -187500.02, -187500.02, -187500.02, 187500.00, -187500.02, -187500.02, 0.000, 0.000, 0.000, 16:05:22.841, 1563221122841
205, -66.54, 155.59, -187500.02, -187500.02, -187500.02, 187500.00, -187500.02, -187500.02, 0.000, 0.000, 0.000, 16:05:22.841, 1563221122841
206, -84.44, 137.31, -187500.02, -187500.02, -187500.02, 187500.00, -187500.02, -187500.02, 0.000, 0.000, 0.000, 16:05:22.841, 1563221122841
207, -141.96, 81.45, -187500.02, -187500.02, -187500.02, 187500.00, -187500.02, -187500.02, 0.000, 0.000, 0.000, 16:05:22.841, 1563221122841
208, -134.65, 89.21, -187500.02, -187500.02, -187500.02, 187500.00, -187500.02, -187500.02, 0.000, 0.000, 0.000, 16:05:22.841, 1563221122841
209, -72.71, 149.51, -187500.02, -187500.02, -187500.02, 187500.00, -187500.02, -187500.02, 0.000, 0.000, 0.000, 16:05:22.841, 1563221122841
210, -76.04, 145.69, -187500.02, -187500.02, -187500.02, 187500.00, -187500.02, -187500.02, 0.018, 0.056, 1.022, 16:05:22.841, 1563221122841
211, -133.80, 89.16, -187500.02, -187500.02, -187500.02, 187500.00, -187500.02, -187500.02, 0.000, 0.000, 0.000, 16:05:22.841, 1563221122841
212, -143.12, 80.73, -187500.02, -187500.02, -187500.02, 187500.00, -187500.02, -187500.02, 0.000, 0.000, 0.000, 16:05:22.841, 1563221122841
213, -80.71, 141.73, -187500.02, -187500.02, -187500.02, 187500.00, -187500.02, -187500.02, 0.000, 0.000, 0.000, 16:05:22.841, 1563221122841
214, -69.49, 152.26, -187500.02, -187500.02, -187500.02, 187500.00, -187500.02, -187500.02, 0.000, 0.000, 0.000, 16:05:22.841, 1563221122841
215, -124.81, 98.08, -187500.02, -187500.02, -187500.02, 187500.00, -187500.02, -187500.02, 0.000, 0.000, 0.000, 16:05:22.841, 1563221122841
216, -148.50, 75.64, -187500.02, -187500.02, -187500.02, 187500.00, -187500.02, -187500.02, 0.000, 0.000, 0.000, 16:05:22.841, 1563221122841
217, -91.33, 131.63, -187500.02, -187500.02, -187500.02, 187500.00, -187500.02, -187500.02, 0.000, 0.000, 0.000, 16:05:22.841, 1563221122841
218, -65.58, 155.95, -187500.02, -187500.02, -187500.02, 187500.00, -187500.02, -187500.02, 0.000, 0.000, 0.000, 16:05:22.841, 1563221122841
219, -114.31, 108.18, -187500.02, -187500.02, -187500.02, 187500.00, -187500.02, -187500.02, 0.000, 0.000, 0.000, 16:05:22.841, 1563221122841
220, -151.37, 73.13, -187500.02, -187500.02, -187500.02, 187500.00, -187500.02, -187500.02, 0.016, 0.056, 1.022, 16:05:22.841, 1563221122841
221, -102.97, 120.68, -187500.02, -187500.02, -187500.02, 187500.00, -187500.02, -187500.02, 0.000, 0.000, 0.000, 16:05:22.841, 1563221122841
222, -62.96, 158.88, -187500.02, -187500.02, -187500.02, 187500.00, -187500.02, -187500.02, 0.000, 0.000, 0.000, 16:05:22.841, 1563221122841
223, -103.51, 118.62, -187500.02, -187500.02, -187500.02, 187500.00, -187500.02, -187500.02, 0.000, 0.000, 0.000, 16:05:22.841, 1563221122841
224, -151.43, 72.44, -187500.02, -187500.02, -187500.02, 187500.00, -187500.02, -187500.02, 0.000, 0.000, 0.000, 16:05:22.841, 1563221122841
225, -114.35, 109.08, -187500.02, -187500.02, -187500.02, 187500.00, -187500.02, -187500.02, 0.000, 0.000, 0.000, 16:05:22.841, 1563221122841
226, -63.59, 158.27, -187500.02, -187500.02, -187500.02, 187500.00, -187500.02, -187500.02, 0.000, 0.000, 0.000, 16:05:23.319, 1563221123319
227, -92.78, 129.46, -187500.02, -187500.02, -187500.02, 187500.00, -187500.02, -187500.02, 0.000, 0.000, 0.000, 16:05:23.319, 1563221123319
228, -146.99, 77.20, -187500.02, -187500.02, -187500.02, 187500.00, -187500.02, -187500.02, 0.000, 0.000, 0.000, 16:05:23.319, 1563221123319
229, -126.11, 97.88, -187500.02, -187500.02, -187500.02, 187500.00, -187500.02, -187500.02, 0.000, 0.000, 0.000, 16:05:23.319, 1563221123319
230, -67.55, 154.52, -187500.02, -187500.02, -187500.02, 187500.00, -187500.02, -187500.02, 0.016, 0.054, 1.026, 16:05:23.319, 1563221123319
231, -83.60, 138.13, -187500.02, -187500.02, -187500.02, 187500.00, -187500.02, -187500.02, 0.000, 0.000, 0.000, 16:05:23.319, 1563221123319
232, -141.31, 82.14, -187500.02, -187500.02, -187500.02, 187500.00, -187500.02, -187500.02, 0.000, 0.000, 0.000, 16:05:23.319, 1563221123319
233, -135.56, 88.38, -187500.02, -187500.02, -187500.02, 187500.00, -187500.02, -187500.02, 0.000, 0.000, 0.000, 16:05:23.319, 1563221123319
234, -73.11, 148.93, -187500.02, -187500.02, -187500.02, 187500.00, -187500.02, -187500.02, 0.000, 0.000, 0.000, 16:05:23.319, 1563221123319
235, -75.33, 146.25, -187500.02, -187500.02, -187500.02, 187500.00, -187500.02, -187500.02, 0.000, 0.000, 0.000, 16:05:23.319, 1563221123319
236, -133.02, 89.81, -187500.02, -187500.02, -187500.02, 187500.00, -187500.02, -187500.02, 0.000, 0.000, 0.000, 16:05:23.319, 1563221123319
237, -142.96, 80.71, -187500.02, -187500.02, -187500.02, 187500.00, -187500.02, -187500.02, 0.000, 0.000, 0.000, 16:05:23.319, 1563221123319
238, -81.11, 141.04, -187500.02, -187500.02, -187500.02, 187500.00, -187500.02, -187500.02, 0.000, 0.000, 0.000, 16:05:23.319, 1563221123319
239, -68.89, 152.64, -187500.02, -187500.02, -187500.02, 187500.00, -187500.02, -187500.02, 0.000, 0.000, 0.000, 16:05:23.319, 1563221123319
240, -123.61, 99.64, -187500.02, -187500.02, -187500.02, 187500.00, -187500.02, -187500.02, 0.000, 0.000, 0.000, 16:05:23.319, 1563221123319
241, -148.68, 75.64, -187500.02, -187500.02, -187500.02, 187500.00, -187500.02, -187500.02, 0.018, 0.060, 1.028, 16:05:23.319, 1563221123319
242, -92.36, 130.87, -187500.02, -187500.02, -187500.02, 187500.00, -187500.02, -187500.02, 0.000, 0.000, 0.000, 16:05:23.319, 1563221123319
243, -64.91, 156.62, -187500.02, -187500.02, -187500.02, 187500.00, -187500.02, -187500.02, 0.000, 0.000, 0.000, 16:05:23.319, 1563221123319
244, -113.39, 109.03, -187500.02, -187500.02, -187500.02, 187500.00, -187500.02, -187500.02, 0.000, 0.000, 0.000, 16:05:23.319, 1563221123319
245, -151.16, 72.93, -187500.02, -187500.02, -187500.02, 187500.00, -187500.02, -187500.02, 0.000, 0.000, 0.000, 16:05:23.319, 1563221123319
246, -103.40, 119.56, -187500.02, -187500.02, -187500.02, 187500.00, -187500.02, -187500.02, 0.000, 0.000, 0.000, 16:05:23.319, 1563221123319
247, -62.74, 158.65, -187500.02, -187500.02, -187500.02, 187500.00, -187500.02, -187500.02, 0.000, 0.000, 0.000, 16:05:23.319, 1563221123319
248, -102.75, 119.20, -187500.02, -187500.02, -187500.02, 187500.00, -187500.02, -187500.02, 0.000, 0.000, 0.000, 16:05:23.319, 1563221123319
249, -150.70, 73.49, -187500.02, -187500.02, -187500.02, 187500.00, -187500.02, -187500.02, 0.000, 0.000, 0.000, 16:05:23.320, 1563221123320
250, -115.16, 108.36, -187500.02, -187500.02, -187500.02, 187500.00, -187500.02, -187500.02, 0.000, 0.000, 0.000, 16:05:23.320, 1563221123320
251, -64.17, 157.49, -187500.02, -187500.02, -187500.02, 187500.00, -187500.02, -187500.02, 0.024, 0.058, 1.024, 16:05:23.320, 1563221123320
252, -92.04, 129.91, -187500.02, -187500.02, -187500.02, 187500.00, -187500.02, -187500.02, 0.000, 0.000, 0.000, 16:05:23.320, 1563221123320
253, -146.69, 76.96, -187500.02, -187500.02, -187500.02, 187500.00, -187500.02, -187500.02, 0.000, 0.000, 0.000, 16:05:23.320, 1563221123320
254, -126.42, 97.25, -187500.02, -187500.02, -187500.02, 187500.00, -187500.02, -187500.02, 0.000, 0.000, 0.000, 16:05:23.320, 1563221123320
255, -67.84, 154.29, -187500.02, -187500.02, -187500.02, 187500.00, -187500.02, -187500.02, 0.000, 0.000, 0.000, 16:05:23.320, 1563221123320
0, -82.79, 139.41, -187500.02, -187500.02, -187500.02, 187500.00, -187500.02, -187500.02, 0.000, 0.000, 0.000, 16:05:23.320, 1563221123320
1, -140.26, 83.06, -187500.02, -187500.02, -187500.02, 187500.00, -187500.02, -187500.02, 0.000, 0.000, 0.000, 16:05:23.320, 1563221123320
2, -136.88, 86.97, -187500.02, -187500.02, -187500.02, 187500.00, -187500.02, -187500.02, 0.000, 0.000, 0.000, 16:05:23.320, 1563221123320
3, -74.41, 148.21, -187500.02, -187500.02, -187500.02, 187500.00, -187500.02, -187500.02, 0.000, 0.000, 0.000, 16:05:23.320, 1563221123320
4, -74.95, 146.99, -187500.02, -187500.02, -187500.02, 187500.00, -187500.02, -187500.02, 0.000, 0.000, 0.000, 16:05:23.320, 1563221123320
5, -132.43, 90.61, -187500.02, -187500.02, -187500.02, 187500.00, -187500.02, -187500.02, 0.020, 0.056, 1.020, 16:05:23.320, 1563221123320
6, -144.46, 79.89, -187500.02, -187500.02, -187500.02, 187500.00, -187500.02, -187500.02, 0.000, 0.000, 0.000, 16:05:23.320, 1563221123320
7, -82.77, 140.10, -187500.02, -187500.02, -187500.02, 187500.00, -187500.02, -187500.02, 0.000, 0.000, 0.000, 16:05:23.320, 1563221123320
8, -68.96, 153.00, -187500.02, -187500.02, -187500.02, 187500.00, -187500.02, -187500.02, 0.000, 0.000, 0.000, 16:05:23.320, 1563221123320
9, -122.64, 100.36, -187500.02, -187500.02, -187500.02, 187500.00, -187500.02, -187500.02, 0.000, 0.000, 0.000, 16:05:23.320, 1563221123320
10, -148.75, 75.50, -187500.02, -187500.02, -187500.02, 187500.00, -187500.02, -187500.02, 0.000, 0.000, 0.000, 16:05:23.320, 1563221123320
11, -93.34, 129.82, -187500.02, -187500.02, -187500.02, 187500.00, -187500.02, -187500.02, 0.000, 0.000, 0.000, 16:05:23.320, 1563221123320
12, -65.04, 156.78, -187500.02, -187500.02, -187500.02, 187500.00, -187500.02, -187500.02, 0.000, 0.000, 0.000, 16:05:23.320, 1563221123320
13, -111.98, 110.57, -187500.02, -187500.02, -187500.02, 187500.00, -187500.02, -187500.02, 0.000, 0.000, 0.000, 16:05:23.320, 1563221123320
14, -151.05, 73.07, -187500.02, -187500.02, -187500.02, 187500.00, -187500.02, -187500.02, 0.000, 0.000, 0.000, 16:05:23.320, 1563221123320
15, -104.74, 118.89, -187500.02, -187500.02, -187500.02, 187500.00, -187500.02, -187500.02, 0.016, 0.052, 1.020, 16:05:23.320, 1563221123320
16, -63.05, 158.99, -187500.02, -187500.02, -187500.02, 187500.00, -187500.02, -187500.02, 0.000, 0.000, 0.000, 16:05:23.320, 1563221123320
17, -101.83, 120.48, -187500.02, -187500.02, -187500.02, 187500.00, -187500.02, -187500.02, 0.000, 0.000, 0.000, 16:05:23.320, 1563221123320
18, -149.69, 74.10, -187500.02, -187500.02, -187500.02, 187500.00, -187500.02, -187500.02, 0.000, 0.000, 0.000, 16:05:23.320, 1563221123320
19, -116.25, 107.49, -187500.02, -187500.02, -187500.02, 187500.00, -187500.02, -187500.02, 0.000, 0.000, 0.000, 16:05:23.320, 1563221123320
20, -64.24, 157.69, -187500.02, -187500.02, -187500.02, 187500.00, -187500.02, -187500.02, 0.000, 0.000, 0.000, 16:05:23.320, 1563221123320
21, -91.64, 130.15, -187500.02, -187500.02, -187500.02, 187500.00, -187500.02, -187500.02, 0.000, 0.000, 0.000, 16:05:23.320, 1563221123320
22, -146.14, 77.47, -187500.02, -187500.02, -187500.02, 187500.00, -187500.02, -187500.02, 0.000, 0.000, 0.000, 16:05:23.320, 1563221123320
23, -127.67, 96.20, -187500.02, -187500.02, -187500.02, 187500.00, -187500.02, -187500.02, 0.000, 0.000, 0.000, 16:05:23.320, 1563221123320
24, -68.31, 154.09, -187500.02, -187500.02, -187500.02, 187500.00, -187500.02, -187500.02, 0.000, 0.000, 0.000, 16:05:23.320, 1563221123320
25, -82.19, 140.03, -187500.02, -187500.02, -187500.02, 187500.00, -187500.02, -187500.02, 0.016, 0.054, 1.020, 16:05:23.320, 1563221123320
26, -139.47, 83.89, -187500.02, -187500.02, -187500.02, 187500.00, -187500.02, -187500.02, 0.000, 0.000, 0.000, 16:05:23.320, 1563221123320
27, -137.33, 86.88, -187500.02, -187500.02, -187500.02, 187500.00, -187500.02, -187500.02, 0.000, 0.000, 0.000, 16:05:23.321, 1563221123321
28, -74.86, 147.75, -187500.02, -187500.02, -187500.02, 187500.00, -187500.02, -187500.02, 0.000, 0.000, 0.000, 16:05:23.321, 1563221123321
29, -74.01, 147.66, -187500.02, -187500.02, -187500.02, 187500.00, -187500.02, -187500.02, 0.000, 0.000, 0.000, 16:05:23.321, 1563221123321
30, -131.41, 91.98, -187500.02, -187500.02, -187500.02, 187500.00, -187500.02, -187500.02, 0.000, 0.000, 0.000, 16:05:23.321, 1563221123321
31, -144.46, 79.55, -187500.02, -187500.02, -187500.02, 187500.00, -187500.02, -187500.02, 0.000, 0.000, 0.000, 16:05:23.321, 1563221123321
32, -83.10, 139.23, -187500.02, -187500.02, -187500.02, 187500.00, -187500.02, -187500.02, 0.000, 0.000, 0.000, 16:05:23.321, 1563221123321
33, -67.93, 153.65, -187500.02, -187500.02, -187500.02, 187500.00, -187500.02, -187500.02, 0.000, 0.000, 0.000, 16:05:23.321, 1563221123321
34, -122.15, 100.56, -187500.02, -187500.02, -187500.02, 187500.00, -187500.02, -187500.02, 0.000, 0.000, 0.000, 16:05:23.321, 1563221123321
35, -149.00, 74.86, -187500.02, -187500.02, -187500.02, 187500.00, -187500.02, -187500.02, 0.014, 0.056, 1.024, 16:05:23.321, 1563221123321
36, -94.39, 128.43, -187500.02, -187500.02, -187500.02, 187500.00, -187500.02, -187500.02, 0.000, 0.000, 0.000, 16:05:23.321, 1563221123321
37, -64.31, 157.36, -187500.02, -187500.02, -187500.02, 187500.00, -187500.02, -187500.02, 0.000, 0.000, 0.000, 16:05:23.321, 1563221123321
38, -110.86, 111.62, -187500.02, -187500.02, -187500.02, 187500.00, -187500.02, -187500.02, 0.000, 0.000, 0.000, 16:05:23.321, 1563221123321
39, -151.21, 72.73, -187500.02, -187500.02, -187500.02, 187500.00, -187500.02, -187500.02, 0.000, 0.000, 0.000, 16:05:23.321, 1563221123321
40, -105.99, 117.35, -187500.02, -187500.02, -187500.02, 187500.00, -187500.02, -187500.02, 0.000, 0.000, 0.000, 16:05:23.321, 1563221123321
41, -62.85, 158.79, -187500.02, -187500.02, -187500.02, 187500.00, -187500.02, -187500.02, 0.000, 0.000, 0.000, 16:05:23.321, 1563221123321
42, -99.91, 122.33, -187500.02, -187500.02, -187500.02, 187500.00, -187500.02, -187500.02, 0.000, 0.000, 0.000, 16:05:23.321, 1563221123321
43, -150.72, 73.51, -187500.02, -187500.02, -187500.02, 187500.00, -187500.02, -187500.02, 0.000, 0.000, 0.000, 16:05:23.321, 1563221123321
44, -118.64, 105.72, -187500.02, -187500.02, -187500.02, 187500.00, -187500.02, -187500.02, 0.000, 0.000, 0.000, 16:05:23.321, 1563221123321
45, -64.75, 157.51, -187500.02, -187500.02, -187500.02, 187500.00, -187500.02, -187500.02, 0.000, 0.000, 0.000, 16:05:23.321, 1563221123321
46, -89.34, 132.52, -187500.02, -187500.02, -187500.02, 187500.00, -187500.02, -187500.02, 0.016, 0.056, 1.028, 16:05:23.321, 1563221123321
47, -146.25, 77.67, -187500.02, -187500.02, -187500.02, 187500.00, -187500.02, -187500.02, 0.000, 0.000, 0.000, 16:05:23.321, 1563221123321
48, -128.66, 95.42, -187500.02, -187500.02, -187500.02, 187500.00, -187500.02, -187500.02, 0.000, 0.000, 0.000, 16:05:23.321, 1563221123321
49, -68.15, 153.74, -187500.02, -187500.02, -187500.02, 187500.00, -187500.02, -187500.02, 0.000, 0.000, 0.000, 16:05:23.321, 1563221123321
50, -81.00, 140.77, -187500.02, -187500.02, -187500.02, 187500.00, -187500.02, -187500.02, 0.000, 0.000, 0.000, 16:05:23.321, 1563221123321
51, -138.78, 84.33, -187500.02, -187500.02, -187500.02, 187500.00, -187500.02, -187500.02, 0.000, 0.000, 0.000, 16:05:23.321, 1563221123321
52, -138.02, 85.92, -187500.02, -187500.02, -187500.02, 187500.00, -187500.02, -187500.02, 0.000, 0.000, 0.000, 16:05:23.321, 1563221123321
53, -75.30, 147.01, -187500.02, -187500.02, -187500.02, 187500.00, -187500.02, -187500.02, 0.000, 0.000, 0.000, 16:05:23.321, 1563221123321
54, -73.18, 148.53, -187500.02, -187500.02, -187500.02, 187500.00, -187500.02, -187500.02, 0.000, 0.000, 0.000, 16:05:23.321, 1563221123321
55, -130.38, 92.51, -187500.02, -187500.02, -187500.02, 187500.00, -187500.02, -187500.02, 0.000, 0.000, 0.000, 16:05:23.321, 1563221123321
56, -145.31, 78.79, -187500.02, -187500.02, -187500.02, 187500.00, -187500.02, -187500.02, 0.020, 0.058, 1.026, 16:05:23.321, 1563221123321
57, -84.47, 138.38, -187500.02, -187500.02, -187500.02, 187500.00, -187500.02, -187500.02, 0.000, 0.000, 0.000, 16:05:23.321, 1563221123321
58, -67.44, 154.23, -187500.02, -187500.02, -187500.02, 187500.00, -187500.02, -187500.02, 0.000, 0.000, 0.000, 16:05:23.321, 1563221123321
59, -120.39, 102.39, -187500.02, -187500.02, -187500.02, 187500.00, -187500.02, -187500.02, 0.000, 0.000, 0.000, 16:05:23.321, 1563221123321
60, -149.47, 74.79, -187500.02, -187500.02, -187500.02, 187500.00, -187500.02, -187500.02, 0.000, 0.000, 0.000, 16:05:23.321, 1563221123321
61, -94.68, 128.54, -187500.02, -187500.02, -187500.02, 187500.00, -187500.02, -187500.02, 0.000, 0.000, 0.000, 16:05:23.321, 1563221123321
62, -63.52, 158.32, -187500.02, -187500.02, -187500.02, 187500.00, -187500.02, -187500.02, 0.000, 0.000, 0.000, 16:05:23.322, 1563221123322
63, -110.73, 111.71, -187500.02, -187500.02, -187500.02, 187500.00, -187500.02, -187500.02, 0.000, 0.000, 0.000, 16:05:23.322, 1563221123322
64, -151.75, 72.46, -187500.02, -187500.02, -187500.02, 187500.00, -187500.02, -187500.02, 0.000, 0.000, 0.000, 16:05:23.322, 1563221123322
65, -106.89, 116.63, -187500.02, -187500.02, -187500.02, 187500.00, -187500.02, -187500.02, 0.000, 0.000, 0.000, 16:05:23.322, 1563221123322
66, -62.90, 158.81, -187500.02, -187500.02, -187500.02, 187500.00, -187500.02, -187500.02, 0.018, 0.058, 1.028, 16:05:23.322, 1563221123322
67, -99.53, 122.85, -187500.02, -187500.02, -187500.02, 187500.00, -187500.02, -187500.02, 0.000, 0.000, 0.000, 16:05:23.322, 1563221123322
68, -149.60, 74.25, -187500.02, -187500.02, -187500.02, 187500.00, -187500.02, -187500.02, 0.000, 0.000, 0.000, 16:05:23.322, 1563221123322
69, -118.44, 104.96, -187500.02, -187500.02, -187500.02, 187500.00, -187500.02, -187500.02, 0.000, 0.000, 0.000, 16:05:23.322, 1563221123322
70, -64.35, 157.22, -187500.02, -187500.02, -187500.02, 187500.00, -187500.02, -187500.02, 0.000, 0.000, 0.000, 16:05:23.322, 1563221123322
71, -89.16, 132.39, -187500.02, -187500.02, -187500.02, 187500.00, -187500.02, -187500.02, 0.000, 0.000, 0.000, 16:05:23.322, 1563221123322
72, -144.97, 78.37, -187500.02, -187500.02, -187500.02, 187500.00, -187500.02, -187500.02, 0.000, 0.000, 0.000, 16:05:23.322, 1563221123322
73, -129.64, 94.35, -187500.02, -187500.02, -187500.02, 187500.00, -187500.02, -187500.02, 0.000, 0.000, 0.000, 16:05:23.322, 1563221123322
74, -68.82, 153.44, -187500.02, -187500.02, -187500.02, 187500.00, -187500.02, -187500.02, 0.000, 0.000, 0.000, 16:05:23.322, 1563221123322
75, -80.15, 141.84, -187500.02, -187500.02, -187500.02, 187500.00, -187500.02, -187500.02, 0.000, 0.000, 0.000, 16:05:23.322, 1563221123322
76, -138.49, 84.67, -187500.02, -187500.02, -187500.02, 187500.00, -187500.02, -187500.02, 0.022, 0.058, 1.022, 16:05:23.322, 1563221123322
77, -139.34, 84.65, -187500.02, -187500.02, -187500.02, 187500.00, -187500.02, -187500.02, 0.000, 0.000, 0.000, 16:05:23.322, 1563221123322
78, -76.47, 146.31, -187500.02, -187500.02, -187500.02, 187500.00, -187500.02, -187500.02, 0.000, 0.000, 0.000, 16:05:23.322, 1563221123322
79, -72.75, 149.09, -187500.02, -187500.02, -187500.02, 187500.00, -187500.02, -187500.02, 0.000, 0.000, 0.000, 16:05:23.322, 1563221123322
80, -129.66, 93.05, -187500.02, -187500.02, -187500.02, 187500.00, -187500.02, -187500.02, 0.000, 0.000, 0.000, 16:05:23.322, 1563221123322
81, -146.40, 77.85, -187500.02, -187500.02, -187500.02, 187500.00, -187500.02, -187500.02, 0.000, 0.000, 0.000, 16:05:23.322, 1563221123322
82, -85.61, 137.06, -187500.02, -187500.02, -187500.02, 187500.00, -187500.02, -187500.02, 0.000, 0.000, 0.000, 16:05:23.322, 1563221123322
83, -67.23, 153.98, -187500.02, -187500.02, -187500.02, 187500.00, -187500.02, -187500.02, 0.000, 0.000, 0.000, 16:05:23.322, 1563221123322
84, -119.49, 103.13, -187500.02, -187500.02, -187500.02, 187500.00, -187500.02, -187500.02, 0.000, 0.000, 0.000, 16:05:23.322, 1563221123322
85, -150.11, 74.16, -187500.02, -187500.02, -187500.02, 187500.00, -187500.02, -187500.02, 0.000, 0.000, 0.000, 16:05:23.322, 1563221123322
86, -96.58, 126.40, -187500.02, -187500.02, -187500.02, 187500.00, -187500.02, -187500.02, 0.018, 0.058, 1.022, 16:05:23.322, 1563221123322
87, -63.70, 157.94, -187500.02, -187500.02, -187500.02, 187500.00, -187500.02, -187500.02, 0.000, 0.000, 0.000, 16:05:23.322, 1563221123322
88, -108.83, 113.82, -187500.02, -187500.02, -187500.02, 187500.00, -187500.02, -187500.02, 0.000, 0.000, 0.000, 16:05:23.322, 1563221123322
89, -151.59, 72.93, -187500.02, -187500.02, -187500.02, 187500.00, -187500.02, -187500.02, 0.000, 0.000, 0.000, 16:05:23.322, 1563221123322
90, -108.70, 114.80, -187500.02, -187500.02, -187500.02, 187500.00, -187500.02, -187500.02, 0.000, 0.000, 0.000, 16:05:23.799, 1563221123799
91, -62.74, 158.61, -187500.02, -187500.02, -187500.02, 187500.00, -187500.02, -187500.02, 0.000, 0.000, 0.000, 16:05:23.799, 1563221123799
92, -98.41, 123.58, -187500.02, -187500.02, -187500.02, 187500.00, -187500.02, -187500.02, 0.000, 0.000, 0.000, 16:05:23.799, 1563221123799
93, -149.67, 74.23, -187500.02, -187500.02, -187500.02, 187500.00, -187500.02, -187500.02, 0.000, 0.000, 0.000, 16:05:23.799, 1563221123799
94, -119.94, 103.89, -187500.02, -187500.02, -187500.02, 187500.00, -187500.02, -187500.02, 0.000, 0.000, 0.000, 16:05:23.799, 1563221123799
95, -65.24, 156.82, -187500.02, -187500.02, -187500.02, 187500.00, -187500.02, -187500.02, 0.000, 0.000, 0.000, 16:05:23.800, 1563221123800
96, -88.27, 133.46, -187500.02, -187500.02, -187500.02, 187500.00, -187500.02, -187500.02, 0.000, 0.000, 0.000, 16:05:23.800, 1563221123800
97, -144.75, 78.66, -187500.02, -187500.02, -187500.02, 187500.00, -187500.02, -187500.02, 0.024, 0.058, 1.020, 16:05:23.800, 1563221123800
98, -130.51, 93.18, -187500.02, -187500.02, -187500.02, 187500.00, -187500.02, -187500.02, 0.000, 0.000, 0.000, 16:05:23.800, 1563221123800
99, -69.27, 152.33, -187500.02, -187500.02, -187500.02, 187500.00, -187500.02, -187500.02, 0.000, 0.000, 0.000, 16:05:23.800, 1563221123800
100, -79.51, 141.69, -187500.02, -187500.02, -187500.02, 187500.00, -187500.02, -187500.02, 0.000, 0.000, 0.000, 16:05:23.800, 1563221123800
101, -137.35, 85.43, -187500.02, -187500.02, -187500.02, 187500.00, -187500.02, -187500.02, 0.000, 0.000, 0.000, 16:05:23.801, 1563221123801
102, -138.83, 84.71, -187500.02, -187500.02, -187500.02, 187500.00, -187500.02, -187500.02, 0.000, 0.000, 0.000, 16:05:23.801, 1563221123801
103, -76.31, 145.69, -187500.02, -187500.02, -187500.02, 187500.00, -187500.02, -187500.02, 0.000, 0.000, 0.000, 16:05:23.801, 1563221123801
104, -71.95, 149.11, -187500.02, -187500.02, -187500.02, 187500.00, -187500.02, -187500.02, 0.000, 0.000, 0.000, 16:05:23.801, 1563221123801
105, -128.28, 94.17, -187500.02, -187500.02, -187500.02, 187500.00, -187500.02, -187500.02, 0.000, 0.000, 0.000, 16:05:23.801, 1563221123801
106, -145.80, 77.43, -187500.02, -187500.02, -187500.02, 187500.00, -187500.02, -187500.02, 0.000, 0.000, 0.000, 16:05:23.801, 1563221123801
107, -85.99, 135.63, -187500.02, -187500.02, -187500.02, 187500.00, -187500.02, -187500.02, 0.022, 0.058, 1.024, 16:05:23.801, 1563221123801
108, -66.38, 154.52, -187500.02, -187500.02, -187500.02, 187500.00, -187500.02, -187500.02, 0.000, 0.000, 0.000, 16:05:23.801, 1563221123801
109, -117.44, 104.11, -187500.02, -187500.02, -187500.02, 187500.00, -187500.02, -187500.02, 0.000, 0.000, 0.000, 16:05:23.801, 1563221123801
110, -149.22, 73.85, -187500.02, -187500.02, -187500.02, 187500.00, -187500.02, -187500.02, 0.000, 0.000, 0.000, 16:05:23.801, 1563221123801
111, -97.59, 124.52, -187500.02, -187500.02, -187500.02, 187500.00, -187500.02, -187500.02, 0.000, 0.000, 0.000, 16:05:23.801, 1563221123801
112, -62.65, 157.94, -187500.02, -187500.02, -187500.02, 187500.00, -187500.02, -187500.02, 0.000, 0.000, 0.000, 16:05:23.801, 1563221123801
113, -107.42, 114.02, -187500.02, -187500.02, -187500.02, 187500.00, -187500.02, -187500.02, 0.000, 0.000, 0.000, 16:05:23.801, 1563221123801
114, -150.83, 72.69, -187500.02, -187500.02, -187500.02, 187500.00, -187500.02, -187500.02, 0.000, 0.000, 0.000, 16:05:23.801, 1563221123801
115, -109.08, 113.70, -187500.02, -187500.02, -187500.02, 187500.00, -187500.02, -187500.02, 0.000, 0.000, 0.000, 16:05:23.801, 1563221123801
116, -62.81, 157.83, -187500.02, -187500.02, -187500.02, 187500.00, -187500.02, -187500.02, 0.000, 0.000, 0.000, 16:05:23.801, 1563221123801
117, -96.98, 123.90, -187500.02, -187500.02, -187500.02, 187500.00, -187500.02, -187500.02, 0.020, 0.058, 1.026, 16:05:23.801, 1563221123801
118, -148.68, 73.87, -187500.02, -187500.02, -187500.02, 187500.00, -187500.02, -187500.02, 0.000, 0.000, 0.000, 16:05:23.801, 1563221123801
119, -120.68, 102.19, -187500.02, -187500.02, -187500.02, 187500.00, -187500.02, -187500.02, 0.000, 0.000, 0.000, 16:05:23.802, 1563221123802
120, -64.78, 155.79, -187500.02, -187500.02, -187500.02, 187500.00, -187500.02, -187500.02, 0.000, 0.000, 0.000, 16:05:23.802, 1563221123802
121, -87.08, 133.84, -187500.02, -187500.02, -187500.02, 187500.00, -187500.02, -187500.02, 0.000, 0.000, 0.000, 16:05:23.802, 1563221123802
122, -144.28, 78.81, -187500.02, -187500.02, -187500.02, 187500.00, -187500.02, -187500.02, 0.000, 0.000, 0.000, 16:05:23.802, 1563221123802
123, -131.36, 91.78, -187500.02, -187500.02, -187500.02, 187500.00, -187500.02, -187500.02, 0.000, 0.000, 0.000, 16:05:23.802, 1563221123802
124, -70.01, 151.41, -187500.02, -187500.02, -187500.02, 187500.00, -187500.02, -187500.02, 0.000, 0.000, 0.000, 16:05:23.802, 1563221123802
125, -78.41, 142.74, -187500.02, -187500.02, -187500.02, 187500.00, -187500.02, -187500.02, 0.000, 0.000, 0.000, 16:05:23.802, 1563221123802
126, -136.50, 86.12, -187500.02, -187500.02, -187500.02, 187500.00, -187500.02, -187500.02, 0.000, 0.000, 0.000, 16:05:23.802, 1563221123802
127, -140.28, 83.53, -187500.02, -187500.02, -187500.02, 187500.00, -187500.02, -187500.02, 0.018, 0.064, 1.024, 16:05:23.802, 1563221123802
128, -78.39, 143.65, -187500.02, -187500.02, -187500.02, 187500.00, -187500.02, -187500.02, 0.000, 0.000, 0.000, 16:05:23.802, 1563221123802
129, -71.68, 149.15, -187500.02, -187500.02, -187500.02, 187500.00, -187500.02, -187500.02, 0.000, 0.000, 0.000, 16:05:23.802, 1563221123802
130, -127.61, 94.91, -187500.02, -187500.02, -187500.02, 187500.00, -187500.02, -187500.02, 0.000, 0.000, 0.000, 16:05:23.802, 1563221123802
131, -146.38, 77.14, -187500.02, -187500.02, -187500.02, 187500.00, -187500.02, -187500.02, 0.000, 0.000, 0.000, 16:05:23.802, 1563221123802
132, -87.26, 135.21, -187500.02, -187500.02, -187500.02, 187500.00, -187500.02, -187500.02, 0.000, 0.000, 0.000, 16:05:23.802, 1563221123802
133, -66.03, 154.65, -187500.02, -187500.02, -187500.02, 187500.00, -187500.02, -187500.02, 0.000, 0.000, 0.000, 16:05:23.802, 1563221123802
134, -117.41, 104.81, -187500.02, -187500.02, -187500.02, 187500.00, -187500.02, -187500.02, 0.000, 0.000, 0.000, 16:05:23.802, 1563221123802
135, -150.58, 73.05, -187500.02, -187500.02, -187500.02, 187500.00, -187500.02, -187500.02, 0.000, 0.000, 0.000, 16:05:23.802, 1563221123802
136, -98.12, 124.25, -187500.02, -187500.02, -187500.02, 187500.00, -187500.02, -187500.02, 0.000, 0.000, 0.000, 16:05:23.802, 1563221123802
137, -63.34, 157.67, -187500.02, -187500.02, -187500.02, 187500.00, -187500.02, -187500.02, 0.018, 0.062, 1.024, 16:05:23.802, 1563221123802
138, -107.18, 114.82, -187500.02, -187500.02, -187500.02, 187500.00, -187500.02, -187500.02, 0.000, 0.000, 0.000, 16:05:23.802, 1563221123802
139, -150.96, 72.82, -187500.02, -187500.02, -187500.02, 187500.00, -187500.02, -187500.02, 0.000, 0.000, 0.000, 16:05:23.802, 1563221123802
140, -109.93, 112.90, -187500.02, -187500.02, -187500.02, 187500.00, -187500.02, -187500.02, 0.000, 0.000, 0.000, 16:05:23.802, 1563221123802
141, -62.83, 157.87, -187500.02, -187500.02, -187500.02, 187500.00, -187500.02, -187500.02, 0.000, 0.000, 0.000, 16:05:23.802, 1563221123802
142, -96.38, 125.08, -187500.02, -187500.02, -187500.02, 187500.00, -187500.02, -187500.02, 0.000, 0.000, 0.000, 16:05:23.802, 1563221123802
143, -148.44, 75.19, -187500.02, -187500.02, -187500.02, 187500.00, -187500.02, -187500.02, 0.000, 0.000, 0.000, 16:05:23.802, 1563221123802
144, -122.24, 101.90, -187500.02, -187500.02, -187500.02, 187500.00, -187500.02, -187500.02, 0.000, 0.000, 0.000, 16:05:23.802, 1563221123802
145, -66.03, 155.99, -187500.02, -187500.02, -187500.02, 187500.00, -187500.02, -187500.02, 0.000, 0.000, 0.000, 16:05:23.802, 1563221123802
146, -86.30, 135.05, -187500.02, -187500.02, -187500.02, 187500.00, -187500.02, -187500.02, 0.000, 0.000, 0.000, 16:05:23.802, 1563221123802
147, -143.63, 79.77, -187500.02, -187500.02, -187500.02, 187500.00, -187500.02, -187500.02, 0.000, 0.000, 0.000, 16:05:23.802, 1563221123802
148, -132.59, 91.26, -187500.02, -187500.02, -187500.02, 187500.00, -187500.02, -187500.02, 0.018, 0.058, 1.018, 16:05:23.802, 1563221123802
149, -70.92, 150.96, -187500.02, -187500.02, -187500.02, 187500.00, -187500.02, -187500.02, 0.000, 0.000, 0.000, 16:05:23.802, 1563221123802
150, -78.25, 143.27, -187500.02, -187500.02, -187500.02, 187500.00, -187500.02, -187500.02, 0.000, 0.000, 0.000, 16:05:23.802, 1563221123802
151, -136.17, 86.86, -187500.02, -187500.02, -187500.02, 187500.00, -187500.02, -187500.02, 0.000, 0.000, 0.000, 16:05:23.802, 1563221123802
152, -141.46, 82.46, -187500.02, -187500.02, -187500.02, 187500.00, -187500.02, -187500.02, 0.000, 0.000, 0.000, 16:05:23.803, 1563221123803
153, -78.81, 143.63, -187500.02, -187500.02, -187500.02, 187500.00, -187500.02, -187500.02, 0.000, 0.000, 0.000, 16:05:23.803, 1563221123803
154, -70.77, 150.67, -187500.02, -187500.02, -187500.02, 187500.00, -187500.02, -187500.02, 0.000, 0.000, 0.000, 16:05:23.803, 1563221123803
155, -126.91, 95.91, -187500.02, -187500.02, -187500.02, 187500.00, -187500.02, -187500.02, 0.000, 0.000, 0.000, 16:05:23.803, 1563221123803
156, -147.07, 76.47, -187500.02, -187500.02, -187500.02, 187500.00, -187500.02, -187500.02, 0.000, 0.000, 0.000, 16:05:23.803, 1563221123803
157, -87.75, 134.87, -187500.02, -187500.02, -187500.02, 187500.00, -187500.02, -187500.02, 0.000, 0.000, 0.000, 16:05:23.803, 1563221123803
158, -65.58, 155.86, -187500.02, -187500.02, -187500.02, 187500.00, -187500.02, -187500.02, 0.030, 0.054, 1.018, 16:05:23.803, 1563221123803
159, -117.32, 105.23, -187500.02, -187500.02, -187500.02, 187500.00, -187500.02, -187500.02, 0.000, 0.000, 0.000, 16:05:23.803, 1563221123803
160, -151.03, 72.93, -187500.02, -187500.02, -187500.02, 187500.00, -187500.02, -187500.02, 0.000, 0.000, 0.000, 16:05:23.803, 1563221123803
161, -99.78, 123.07, -187500.02, -187500.02, -187500.02, 187500.00, -187500.02, -187500.02, 0.000, 0.000, 0.000, 16:05:23.803, 1563221123803
162, -63.10, 158.27, -187500.02, -187500.02, -187500.02, 187500.00, -187500.02, -187500.02, 0.000, 0.000, 0.000, 16:05:23.803, 1563221123803
163, -106.04, 115.98, -187500.02, -187500.02, -187500.02, 187500.00, -187500.02, -187500.02, 0.000, 0.000, 0.000, 16:05:23.803, 1563221123803
164, -150.92, 72.60, -187500.02, -187500.02, -187500.02, 187500.00, -187500.02, -187500.02, 0.000, 0.000, 0.000, 16:05:23.803, 1563221123803
165, -111.22, 111.58, -187500.02, -187500.02, -187500.02, 187500.00, -187500.02, -187500.02, 0.000, 0.000, 0.000, 16:05:23.803, 1563221123803
166, -63.26, 158.09, -187500.02, -187500.02, -187500.02, 187500.00, -187500.02, -187500.02, 0.000, 0.000, 0.000, 16:05:23.803, 1563221123803
167, -95.60, 126.06, -187500.02, -187500.02, -187500.02, 187500.00, -187500.02, -187500.02, 0.000, 0.000, 0.000, 16:05:23.803, 1563221123803
168, -148.01, 75.55, -187500.02, -187500.02, -187500.02, 187500.00, -187500.02, -187500.02, 0.024, 0.058, 1.022, 16:05:23.803, 1563221123803
169, -122.91, 100.83, -187500.02, -187500.02, -187500.02, 187500.00, -187500.02, -187500.02, 0.000, 0.000, 0.000, 16:05:23.803, 1563221123803
170, -66.14, 155.81, -187500.02, -187500.02, -187500.02, 187500.00, -187500.02, -187500.02, 0.000, 0.000, 0.000, 16:05:23.803, 1563221123803
171, -85.65, 136.08, -187500.02, -187500.02, -187500.02, 187500.00, -187500.02, -187500.02, 0.000, 0.000, 0.000, 16:05:23.803, 1563221123803
172, -142.69, 80.60, -187500.02, -187500.02, -187500.02, 187500.00, -187500.02, -187500.02, 0.000, 0.000, 0.000, 16:05:23.803, 1563221123803
173, -133.08, 90.50, -187500.02, -187500.02, -187500.02, 187500.00, -187500.02, -187500.02, 0.000, 0.000, 0.000, 16:05:23.803, 1563221123803
174, -71.68, 150.63, -187500.02, -187500.02, -187500.02, 187500.00, -187500.02, -187500.02, 0.000, 0.000, 0.000, 16:05:23.803, 1563221123803
175, -77.58, 143.72, -187500.02, -187500.02, -187500.02, 187500.00, -187500.02, -187500.02, 0.000, 0.000, 0.000, 16:05:23.803, 1563221123803
176, -135.36, 87.51, -187500.02, -187500.02, -187500.02, 187500.00, -187500.02, -187500.02, 0.000, 0.000, 0.000, 16:05:23.803, 1563221123803
177, -141.78, 82.17, -187500.02, -187500.02, -187500.02, 187500.00, -187500.02, -187500.02, 0.000, 0.000, 0.000, 16:05:23.803, 1563221123803
178, -79.66, 142.92, -187500.02, -187500.02, -187500.02, 187500.00, -187500.02, -187500.02, 0.018, 0.058, 1.032, 16:05:23.803, 1563221123803
179, -70.36, 150.76, -187500.02, -187500.02, -187500.02, 187500.00, -187500.02, -187500.02, 0.000, 0.000, 0.000, 16:05:23.803, 1563221123803
180, -125.39, 96.74, -187500.02, -187500.02, -187500.02, 187500.00, -187500.02, -187500.02, 0.000, 0.000, 0.000, 16:05:23.803, 1563221123803
181, -147.95, 75.64, -187500.02, -187500.02, -187500.02, 187500.00, -187500.02, -187500.02, 0.000, 0.000, 0.000, 16:05:23.803, 1563221123803
182, -89.68, 133.06, -187500.02, -187500.02, -187500.02, 187500.00, -187500.02, -187500.02, 0.000, 0.000, 0.000, 16:05:23.803, 1563221123803
183, -65.56, 155.64, -187500.02, -187500.02, -187500.02, 187500.00, -187500.02, -187500.02, 0.000, 0.000, 0.000, 16:05:23.803, 1563221123803
184, -115.36, 106.71, -187500.02, -187500.02, -187500.02, 187500.00, -187500.02, -187500.02, 0.000, 0.000, 0.000, 16:05:23.803, 1563221123803
185, -150.34, 73.02, -187500.02, -187500.02, -187500.02, 187500.00, -187500.02, -187500.02, 0.000, 0.000, 0.000, 16:05:23.804, 1563221123804
186, -100.40, 122.29, -187500.02, -187500.02, -187500.02, 187500.00, -187500.02, -187500.02, 0.000, 0.000, 0.000, 16:05:23.804, 1563221123804
187, -62.83, 158.43, -187500.02, -187500.02, -187500.02, 187500.00, -187500.02, -187500.02, 0.000, 0.000, 0.000, 16:05:23.804, 1563221123804
188, -104.58, 116.94, -187500.02, -187500.02, -187500.02, 187500.00, -187500.02, -187500.02, 0.016, 0.052, 1.026, 16:05:23.804, 1563221123804
189, -150.67, 72.71, -187500.02, -187500.02, -187500.02, 187500.00, -187500.02, -187500.02, 0.000, 0.000, 0.000, 16:05:23.804, 1563221123804
190, -112.56, 110.66, -187500.02, -187500.02, -187500.02, 187500.00, -187500.02, -187500.02, 0.000, 0.000, 0.000, 16:05:23.804, 1563221123804
191, -63.72, 157.80, -187500.02, -187500.02, -187500.02, 187500.00, -187500.02, -187500.02, 0.000, 0.000, 0.000, 16:05:23.804, 1563221123804
192, -94.66, 127.07, -187500.02, -187500.02, -187500.02, 187500.00, -187500.02, -187500.02, 0.000, 0.000, 0.000, 16:05:23.804, 1563221123804
193, -148.19, 75.48, -187500.02, -187500.02, -187500.02, 187500.00, -187500.02, -187500.02, 0.000, 0.000, 0.000, 16:05:23.804, 1563221123804
194, -123.74, 99.69, -187500.02, -187500.02, -187500.02, 187500.00, -187500.02, -187500.02, 0.000, 0.000, 0.000, 16:05:23.804, 1563221123804
195, -66.18, 155.41, -187500.02, -187500.02, -187500.02, 187500.00, -187500.02, -187500.02, 0.000, 0.000, 0.000, 16:05:23.804, 1563221123804
196, -85.09, 136.75, -187500.02, -187500.02, -187500.02, 187500.00, -187500.02, -187500.02, 0.000, 0.000, 0.000, 16:05:23.804, 1563221123804
197, -142.69, 80.65, -187500.02, -187500.02, -187500.02, 187500.00, -187500.02, -187500.02, 0.000, 0.000, 0.000, 16:05:23.804, 1563221123804
198, -134.22, 89.32, -187500.02, -187500.02, -187500.02, 187500.00, -187500.02, -187500.02, 0.020, 0.052, 1.026, 16:05:23.804, 1563221123804
199, -71.84, 150.07, -187500.02, -187500.02, -187500.02, 187500.00, -187500.02, -187500.02, 0.000, 0.000, 0.000, 16:05:23.804, 1563221123804
200, -76.60, 144.97, -187500.02, -187500.02, -187500.02, 187500.00, -187500.02, -187500.02, 0.000, 0.000, 0.000, 16:05:23.804, 1563221123804
201, -134.60, 88.51, -187500.02, -187500.02, -187500.02, 187500.00, -187500.02, -187500.02, 0.000, 0.000, 0.000, 16:05:23.804, 1563221123804
202, -142.58, 81.20, -187500.02, -187500.02, -187500.02, 187500.00, -187500.02, -187500.02, 0.000, 0.000, 0.000, 16:05:23.804, 1563221123804
203, -79.82, 142.63, -187500.02, -187500.02, -187500.02, 187500.00, -187500.02, -187500.02, 0.000, 0.000, 0.000, 16:05:23.804, 1563221123804
204, -70.25, 151.39, -187500.02, -187500.02, -187500.02, 187500.00, -187500.02, -187500.02, 0.000, 0.000, 0.000, 16:05:23.804, 1563221123804
205, -126.15, 96.69, -187500.02, -187500.02, -187500.02, 187500.00, -187500.02, -187500.02, 0.000, 0.000, 0.000, 16:05:23.804, 1563221123804
206, -147.70, 76.06, -187500.02, -187500.02, -187500.02, 187500.00, -187500.02, -187500.02, 0.000, 0.000, 0.000, 16:05:23.804, 1563221123804
207, -89.79, 132.84, -187500.02, -187500.02, -187500.02, 187500.00, -187500.02, -187500.02, 0.000, 0.000, 0.000, 16:05:23.804, 1563221123804
208, -65.24, 155.93, -187500.02, -187500.02, -187500.02, 187500.00, -187500.02, -187500.02, 0.000, 0.000, 0.000, 16:05:23.804, 1563221123804
209, -114.80, 107.47, -187500.02, -187500.02, -187500.02, 187500.00, -187500.02, -187500.02, 0.018, 0.054, 1.026, 16:05:23.804, 1563221123804
210, -150.87, 73.07, -187500.02, -187500.02, -187500.02, 187500.00, -187500.02, -187500.02, 0.000, 0.000, 0.000, 16:05:24.281, 1563221124281
211, -101.75, 120.97, -187500.02, -187500.02, -187500.02, 187500.00, -187500.02, -187500.02, 0.000, 0.000, 0.000, 16:05:24.281, 1563221124281
212, -62.96, 158.16, -187500.02, -187500.02, -187500.02, 187500.00, -187500.02, -187500.02, 0.000, 0.000, 0.000, 16:05:24.281, 1563221124281
213, -104.09, 117.97, -187500.02, -187500.02, -187500.02, 187500.00, -187500.02, -187500.02, 0.000, 0.000, 0.000, 16:05:24.281, 1563221124281
214, -150.56, 73.34, -187500.02, -187500.02, -187500.02, 187500.00, -187500.02, -187500.02, 0.000, 0.000, 0.000, 16:05:24.281, 1563221124281
215, -113.32, 109.95, -187500.02, -187500.02, -187500.02, 187500.00, -187500.02, -187500.02, 0.000, 0.000, 0.000, 16:05:24.281, 1563221124281
216, -63.19, 158.16, -187500.02, -187500.02, -187500.02, 187500.00, -187500.02, -187500.02, 0.000, 0.000, 0.000, 16:05:24.281, 1563221124281
217, -94.12, 127.49, -187500.02, -187500.02, -187500.02, 187500.00, -187500.02, -187500.02, 0.000, 0.000, 0.000, 16:05:24.281, 1563221124281
218, -147.61, 75.91, -187500.02, -187500.02, -187500.02, 187500.00, -187500.02, -187500.02, 0.000, 0.000, 0.000, 16:05:24.281, 1563221124281
219, -124.75, 98.55, -187500.02, -187500.02, -187500.02, 187500.00, -187500.02, -187500.02, 0.018, 0.058, 1.026, 16:05:24.281, 1563221124281
220, -66.32, 155.41, -187500.02, -187500.02, -187500.02, 187500.00, -187500.02, -187500.02, 0.000, 0.000, 0.000, 16:05:24.281, 1563221124281
221, -83.82, 137.84, -187500.02, -187500.02, -187500.02, 187500.00, -187500.02, -187500.02, 0.000, 0.000, 0.000, 16:05:24.281, 1563221124281
222, -141.75, 81.49, -187500.02, -187500.02, -187500.02, 187500.00, -187500.02, -187500.02, 0.000, 0.000, 0.000, 16:05:24.281, 1563221124281
223, -134.87, 88.80, -187500.02, -187500.02, -187500.02, 187500.00, -187500.02, -187500.02, 0.000, 0.000, 0.000, 16:05:24.281, 1563221124281
224, -72.71, 149.24, -187500.02, -187500.02, -187500.02, 187500.00, -187500.02, -187500.02, 0.000, 0.000, 0.000, 16:05:24.281, 1563221124281
225, -75.17, 145.42, -187500.02, -187500.02, -187500.02, 187500.00, -187500.02, -187500.02, 0.000, 0.000, 0.000, 16:05:24.282, 1563221124282
226, -133.19, 89.16, -187500.02, -187500.02, -187500.02, 187500.00, -187500.02, -187500.02, 0.000, 0.000, 0.000, 16:05:24.282, 1563221124282
227, -142.45, 80.78, -187500.02, -187500.02, -187500.02, 187500.00, -187500.02, -187500.02, 0.000, 0.000, 0.000, 16:05:24.282, 1563221124282
228, -81.52, 140.68, -187500.02, -187500.02, -187500.02, 187500.00, -187500.02, -187500.02, 0.000, 0.000, 0.000, 16:05:24.282, 1563221124282
229, -69.34, 151.72, -187500.02, -187500.02, -187500.02, 187500.00, -187500.02, -187500.02, 0.018, 0.060, 1.028, 16:05:24.282, 1563221124282
230, -124.01, 98.30, -187500.02, -187500.02, -187500.02, 187500.00, -187500.02, -187500.02, 0.000, 0.000, 0.000, 16:05:24.282, 1563221124282
231, -148.19, 75.30, -187500.02, -187500.02, -187500.02, 187500.00, -187500.02, -187500.02, 0.000, 0.000, 0.000, 16:05:24.282, 1563221124282
232, -91.28, 131.16, -187500.02, -187500.02, -187500.02, 187500.00, -187500.02, -187500.02, 0.000, 0.000, 0.000, 16:05:24.282, 1563221124282
233, -65.36, 155.99, -187500.02, -187500.02, -187500.02, 187500.00, -187500.02, -187500.02, 0.000, 0.000, 0.000, 16:05:24.282, 1563221124282
234, -113.48, 108.88, -187500.02, -187500.02, -187500.02, 187500.00, -187500.02, -187500.02, 0.000, 0.000, 0.000, 16:05:24.282, 1563221124282
235, -150.70, 73.00, -187500.02, -187500.02, -187500.02, 187500.00, -187500.02, -187500.02, 0.000, 0.000, 0.000, 16:05:24.282, 1563221124282
236, -103.47, 119.78, -187500.02, -187500.02, -187500.02, 187500.00, -187500.02, -187500.02, 0.000, 0.000, 0.000, 16:05:24.282, 1563221124282
237, -62.96, 158.68, -187500.02, -187500.02, -187500.02, 187500.00, -187500.02, -187500.02, 0.000, 0.000, 0.000, 16:05:24.282, 1563221124282
238, -102.84, 119.05, -187500.02, -187500.02, -187500.02, 187500.00, -187500.02, -187500.02, 0.000, 0.000, 0.000, 16:05:24.283, 1563221124283
239, -150.70, 73.05, -187500.02, -187500.02, -187500.02, 187500.00, -187500.02, -187500.02, 0.024, 0.058, 1.032, 16:05:24.283, 1563221124283
240, -114.69, 108.81, -187500.02, -187500.02, -187500.02, 187500.00, -187500.02, -187500.02, 0.000, 0.000, 0.000, 16:05:24.283, 1563221124283
241, -63.84, 157.87, -187500.02, -187500.02, -187500.02, 187500.00, -187500.02, -187500.02, 0.000, 0.000, 0.000, 16:05:24.283, 1563221124283
242, -92.80, 128.97, -187500.02, -187500.02, -187500.02, 187500.00, -187500.02, -187500.02, 0.000, 0.000, 0.000, 16:05:24.283, 1563221124283
243, -146.90, 76.31, -187500.02, -187500.02, -187500.02, 187500.00, -187500.02, -187500.02, 0.000, 0.000, 0.000, 16:05:24.283, 1563221124283
244, -125.68, 97.41, -187500.02, -187500.02, -187500.02, 187500.00, -187500.02, -187500.02, 0.000, 0.000, 0.000, 16:05:24.283, 1563221124283
245, -67.17, 154.18, -187500.02, -187500.02, -187500.02, 187500.00, -187500.02, -187500.02, 0.000, 0.000, 0.000, 16:05:24.283, 1563221124283
246, -83.01, 138.60, -187500.02, -187500.02, -187500.02, 187500.00, -187500.02, -187500.02, 0.000, 0.000, 0.000, 16:05:24.283, 1563221124283
247, -140.55, 82.61, -187500.02, -187500.02, -187500.02, 187500.00, -187500.02, -187500.02, 0.000, 0.000, 0.000, 16:05:24.283, 1563221124283
248, -135.70, 88.02, -187500.02, -187500.02, -187500.02, 187500.00, -187500.02, -187500.02, 0.000, 0.000, 0.000, 16:05:24.283, 1563221124283
249, -73.81, 148.55, -187500.02, -187500.02, -187500.02, 187500.00, -187500.02, -187500.02, 0.026, 0.058, 1.022, 16:05:24.283, 1563221124283
250, -75.35, 146.23, -187500.02, -187500.02, -187500.02, 187500.00, -187500.02, -187500.02, 0.000, 0.000, 0.000, 16:05:24.283, 1563221124283
251, -132.86, 90.32, -187500.02, -187500.02, -187500.02, 187500.00, -187500.02, -187500.02, 0.000, 0.000, 0.000, 16:05:24.283, 1563221124283
252, -143.59, 80.60, -187500.02, -187500.02, -187500.02, 187500.00, -187500.02, -187500.02, 0.000, 0.000, 0.000, 16:05:24.283, 1563221124283
253, -81.99, 140.46, -187500.02, -187500.02, -187500.02, 187500.00, -187500.02, -187500.02, 0.000, 0.000, 0.000, 16:05:24.283, 1563221124283
254, -68.91, 152.30, -187500.02, -187500.02, -187500.02, 187500.00, -187500.02, -187500.02, 0.000, 0.000, 0.000, 16:05:24.283, 1563221124283
255, -122.62, 99.69, -187500.02, -187500.02, -187500.02, 187500.00, -187500.02, -187500.02, 0.000, 0.000, 0.000, 16:05:24.283, 1563221124283
0, -148.50, 75.26, -187500.02, -187500.02, -187500.02, 187500.00, -187500.02, -187500.02, 0.000, 0.000, 0.000, 16:05:24.283, 1563221124283
1, -92.89, 129.89, -187500.02, -187500.02, -187500.02, 187500.00, -187500.02, -187500.02, 0.000, 0.000, 0.000, 16:05:24.283, 1563221124283
2, -64.84, 156.71, -187500.02, -187500.02, -187500.02, 187500.00, -187500.02, -187500.02, 0.000, 0.000, 0.000, 16:05:24.283, 1563221124283
3, -112.63, 109.48, -187500.02, -187500.02, -187500.02, 187500.00, -187500.02, -187500.02, 0.000, 0.000, 0.000, 16:05:24.283, 1563221124283
4, -150.70, 72.89, -187500.02, -187500.02, -187500.02, 187500.00, -187500.02, -187500.02, 0.022, 0.058, 1.022, 16:05:24.283, 1563221124283
5, -103.40, 119.05, -187500.02, -187500.02, -187500.02, 187500.00, -187500.02, -187500.02, 0.000, 0.000, 0.000, 16:05:24.283, 1563221124283
6, -62.67, 158.38, -187500.02, -187500.02, -187500.02, 187500.00, -187500.02, -187500.02, 0.000, 0.000, 0.000, 16:05:24.283, 1563221124283
7, -102.42, 119.43, -187500.02, -187500.02, -187500.02, 187500.00, -187500.02, -187500.02, 0.000, 0.000, 0.000, 16:05:24.283, 1563221124283
8, -150.25, 73.22, -187500.02, -187500.02, -187500.02, 187500.00, -187500.02, -187500.02, 0.000, 0.000, 0.000, 16:05:24.283, 1563221124283
9, -115.71, 107.42, -187500.02, -187500.02, -187500.02, 187500.00, -187500.02, -187500.02, 0.000, 0.000, 0.000, 16:05:24.283, 1563221124283
10, -63.77, 157.71, -187500.02, -187500.02, -187500.02, 187500.00, -187500.02, -187500.02, 0.000, 0.000, 0.000, 16:05:24.283, 1563221124283
11, -91.71, 130.31, -187500.02, -187500.02, -187500.02, 187500.00, -187500.02, -187500.02, 0.000, 0.000, 0.000, 16:05:24.283, 1563221124283
12, -146.11, 77.31, -187500.02, -187500.02, -187500.02, 187500.00, -187500.02, -187500.02, 0.000, 0.000, 0.000, 16:05:24.283, 1563221124283
13, -126.51, 96.85, -187500.02, -187500.02, -187500.02, 187500.00, -187500.02, -187500.02, 0.000, 0.000, 0.000, 16:05:24.283, 1563221124283
14, -67.30, 154.29, -187500.02, -187500.02, -187500.02, 187500.00, -187500.02, -187500.02, 0.020, 0.062, 1.024, 16:05:24.284, 1563221124284
15, -83.08, 138.40, -187500.02, -187500.02, -187500.02, 187500.00, -187500.02, -187500.02, 0.000, 0.000, 0.000, 16:05:24.284, 1563221124284
16, -141.24, 82.01, -187500.02, -187500.02, -187500.02, 187500.00, -187500.02, -187500.02, 0.000, 0.000, 0.000, 16:05:24.284, 1563221124284
17, -136.70, 87.04, -187500.02, -187500.02, -187500.02, 187500.00, -187500.02, -187500.02, 0.000, 0.000, 0.000, 16:05:24.284, 1563221124284
18, -73.96, 147.83, -187500.02, -187500.02, -187500.02, 187500.00, -187500.02, -187500.02, 0.000, 0.000, 0.000, 16:05:24.284, 1563221124284
19, -74.97, 146.25, -187500.02, -187500.02, -187500.02, 187500.00, -187500.02, -187500.02, 0.000, 0.000, 0.000, 16:05:24.284, 1563221124284
20, -132.10, 90.32, -187500.02, -187500.02, -187500.02, 187500.00, -187500.02, -187500.02, 0.000, 0.000, 0.000, 16:05:24.284, 1563221124284
21, -143.68, 79.89, -187500.02, -187500.02, -187500.02, 187500.00, -187500.02, -187500.02, 0.000, 0.000, 0.000, 16:05:24.284, 1563221124284
22, -82.12, 140.35, -187500.02, -187500.02, -187500.02, 187500.00, -187500.02, -187500.02, 0.000, 0.000, 0.000, 16:05:24.284, 1563221124284
23, -68.53, 152.80, -187500.02, -187500.02, -187500.02, 187500.00, -187500.02, -187500.02, 0.000, 0.000, 0.000, 16:05:24.284, 1563221124284
24, -122.73, 99.80, -187500.02, -187500.02, -187500.02, 187500.00, -187500.02, -187500.02, 0.018, 0.056, 1.024, 16:05:24.284, 1563221124284
25, -149.00, 74.74, -187500.02, -187500.02, -187500.02, 187500.00, -187500.02, -187500.02, 0.000, 0.000, 0.000, 16:05:24.284, 1563221124284
26, -92.85, 129.84, -187500.02, -187500.02, -187500.02, 187500.00, -187500.02, -187500.02, 0.000, 0.000, 0.000, 16:05:24.284, 1563221124284
27, -64.53, 156.80, -187500.02, -187500.02, -187500.02, 187500.00, -187500.02, -187500.02, 0.000, 0.000, 0.000, 16:05:24.284, 1563221124284
28, -111.83, 110.55, -187500.02, -187500.02, -187500.02, 187500.00, -187500.02, -187500.02, 0.000, 0.000, 0.000, 16:05:24.284, 1563221124284
29, -150.76, 73.05, -187500.02, -187500.02, -187500.02, 187500.00, -187500.02, -187500.02, 0.000, 0.000, 0.000, 16:05:24.284, 1563221124284
30, -104.67, 118.22, -187500.02, -187500.02, -187500.02, 187500.00, -187500.02, -187500.02, 0.000, 0.000, 0.000, 16:05:24.284, 1563221124284
31, -62.67, 158.56, -187500.02, -187500.02, -187500.02, 187500.00, -187500.02, -187500.02, 0.000, 0.000, 0.000, 16:05:24.284, 1563221124284
32, -101.21, 120.61, -187500.02, -187500.02, -187500.02, 187500.00, -187500.02, -187500.02, 0.000, 0.000, 0.000, 16:05:24.284, 1563221124284
33, -150.11, 73.40, -187500.02, -187500.02, -187500.02, 187500.00, -187500.02, -187500.02, 0.000, 0.000, 0.000, 16:05:24.284, 1563221124284
34, -116.54, 106.37, -187500.02, -187500.02, -187500.02, 187500.00, -187500.02, -187500.02, 0.016, 0.054, 1.022, 16:05:24.284, 1563221124284
35, -63.70, 157.76, -187500.02, -187500.02, -187500.02, 187500.00, -187500.02, -187500.02, 0.000, 0.000, 0.000, 16:05:24.284, 1563221124284
36, -90.79, 130.62, -187500.02, -187500.02, -187500.02, 187500.00, -187500.02, -187500.02, 0.000, 0.000, 0.000, 16:05:24.284, 1563221124284
37, -146.00, 77.09, -187500.02, -187500.02, -187500.02, 187500.00, -187500.02, -187500.02, 0.000, 0.000, 0.000, 16:05:24.284, 1563221124284
38, -127.23, 95.98, -187500.02, -187500.02, -187500.02, 187500.00, -187500.02, -187500.02, 0.000, 0.000, 0.000, 16:05:24.284, 1563221124284
39, -68.28, 153.11, -187500.02, -187500.02, -187500.02, 187500.00, -187500.02, -187500.02, 0.000, 0.000, 0.000, 16:05:24.284, 1563221124284
40, -81.85, 139.77, -187500.02, -187500.02, -187500.02, 187500.00, -187500.02, -187500.02, 0.000, 0.000, 0.000, 16:05:24.284, 1563221124284
41, -139.85, 83.22, -187500.02, -187500.02, -187500.02, 187500.00, -187500.02, -187500.02, 0.000, 0.000, 0.000, 16:05:24.284, 1563221124284
42, -137.31, 86.30, -187500.02, -187500.02, -187500.02, 187500.00, -187500.02, -187500.02, 0.000, 0.000, 0.000, 16:05:24.284, 1563221124284
43, -74.70, 147.30, -187500.02, -187500.02, -187500.02, 187500.00, -187500.02, -187500.02, 0.000, 0.000, 0.000, 16:05:24.284, 1563221124284
44, -73.63, 147.81, -187500.02, -187500.02, -187500.02, 187500.00, -187500.02, -187500.02, 0.012, 0.058, 1.026, 16:05:24.284, 1563221124284
45, -131.47, 91.46, -187500.02, -187500.02, -187500.02, 187500.00, -187500.02, -187500.02, 0.000, 0.000, 0.000, 16:05:24.284, 1563221124284
46, -144.97, 79.04, -187500.02, -187500.02, -187500.02, 187500.00, -187500.02, -187500.02, 0.000, 0.000, 0.000, 16:05:24.285, 1563221124285
47, -83.86, 138.56, -187500.02, -187500.02, -187500.02, 187500.00, -187500.02, -187500.02, 0.000, 0.000, 0.000, 16:05:24.285, 1563221124285
48, -68.31, 153.38, -187500.02, -187500.02, -187500.02, 187500.00, -187500.02, -187500.02, 0.000, 0.000, 0.000, 16:05:24.285, 1563221124285
49, -121.46, 100.99, -187500.02, -187500.02, -187500.02, 187500.00, -187500.02, -187500.02, 0.000, 0.000, 0.000, 16:05:24.285, 1563221124285
50, -149.51, 74.01, -187500.02, -187500.02, -187500.02, 187500.00, -187500.02, -187500.02, 0.000, 0.000, 0.000, 16:05:24.285, 1563221124285
51, -94.17, 128.50, -187500.02, -187500.02, -187500.02, 187500.00, -187500.02, -187500.02, 0.000, 0.000, 0.000, 16:05:24.285, 1563221124285
52, -64.08, 157.18, -187500.02, -187500.02, -187500.02, 187500.00, -187500.02, -187500.02, 0.000, 0.000, 0.000, 16:05:24.285, 1563221124285
53, -110.84, 111.13, -187500.02, -187500.02, -187500.02, 187500.00, -187500.02, -187500.02, 0.000, 0.000, 0.000, 16:05:24.285, 1563221124285
54, -151.34, 72.22, -187500.02, -187500.02, -187500.02, 187500.00, -187500.02, -187500.02, 0.022, 0.058, 1.020, 16:05:24.285, 1563221124285
55, -105.52, 117.30, -187500.02, -187500.02, -187500.02, 187500.00, -187500.02, -187500.02, 0.000, 0.000, 0.000, 16:05:24.285, 1563221124285
56, -62.63, 158.47, -187500.02, -187500.02, -187500.02, 187500.00, -187500.02, -187500.02, 0.000, 0.000, 0.000, 16:05:24.285, 1563221124285
57, -100.45, 121.06, -187500.02, -187500.02, -187500.02, 187500.00, -187500.02, -187500.02, 0.000, 0.000, 0.000, 16:05:24.285, 1563221124285
58, -150.25, 72.89, -187500.02, -187500.02, -187500.02, 187500.00, -187500.02, -187500.02, 0.000, 0.000, 0.000, 16:05:24.285, 1563221124285
59, -116.99, 105.79, -187500.02, -187500.02, -187500.02, 187500.00, -187500.02, -187500.02, 0.000, 0.000, 0.000, 16:05:24.285, 1563221124285
60, -63.79, 157.60, -187500.02, -187500.02, -187500.02, 187500.00, -187500.02, -187500.02, 0.000, 0.000, 0.000, 16:05:24.285, 1563221124285
61, -90.57, 130.78, -187500.02, -187500.02, -187500.02, 187500.00, -187500.02, -187500.02, 0.000, 0.000, 0.000, 16:05:24.285, 1563221124285
62, -145.98, 76.87, -187500.02, -187500.02, -187500.02, 187500.00, -187500.02, -187500.02, 0.000, 0.000, 0.000, 16:05:24.285, 1563221124285
63, -128.54, 94.84, -187500.02, -187500.02, -187500.02, 187500.00, -187500.02, -187500.02, 0.000, 0.000, 0.000, 16:05:24.285, 1563221124285
64, -68.46, 152.91, -187500.02, -187500.02, -187500.02, 187500.00, -187500.02, -187500.02, 0.000, 0.000, 0.000, 16:05:24.285, 1563221124285
65, -80.58, 140.55, -187500.02, -187500.02, -187500.02, 187500.00, -187500.02, -187500.02, 0.022, 0.058, 1.028, 16:05:24.285, 1563221124285
66, -139.03, 83.80, -187500.02, -187500.02, -187500.02, 187500.00, -187500.02, -187500.02, 0.000, 0.000, 0.000, 16:05:24.285, 1563221124285
67, -138.33, 85.14, -187500.02, -187500.02, -187500.02, 187500.00, -187500.02, -187500.02, 0.000, 0.000, 0.000, 16:05:24.285, 1563221124285
68, -75.10, 146.38, -187500.02, -187500.02, -187500.02, 187500.00, -187500.02, -187500.02, 0.000, 0.000, 0.000, 16:05:24.285, 1563221124285
69, -73.07, 147.81, -187500.02, -187500.02, -187500.02, 187500.00, -187500.02, -187500.02, 0.000, 0.000, 0.000, 16:05:24.285, 1563221124285
70, -130.22, 92.29, -187500.02, -187500.02, -187500.02, 187500.00, -187500.02, -187500.02, 0.000, 0.000, 0.000, 16:05:24.285, 1563221124285
71, -144.66, 78.61, -187500.02, -187500.02, -187500.02, 187500.00, -187500.02, -187500.02, 0.000, 0.000, 0.000, 16:05:24.285, 1563221124285
72, -84.40, 137.51, -187500.02, -187500.02, -187500.02, 187500.00, -187500.02, -187500.02, 0.000, 0.000, 0.000, 16:05:24.285, 1563221124285
73, -66.99, 153.74, -187500.02, -187500.02, -187500.02, 187500.00, -187500.02, -187500.02, 0.000, 0.000, 0.000, 16:05:24.285, 1563221124285
74, -119.94, 102.13, -187500.02, -187500.02, -187500.02, 187500.00, -187500.02, -187500.02, 0.000, 0.000, 0.000, 16:05:24.761, 1563221124761
75, -149.35, 74.25, -187500.02, -187500.02, -187500.02, 187500.00, -187500.02, -187500.02, 0.020, 0.062, 1.028, 16:05:24.761, 1563221124761
76, -95.33, 127.14, -187500.02, -187500.02, -187500.02, 187500.00, -187500.02, -187500.02, 0.000, 0.000, 0.000, 16:05:24.762, 1563221124762
77, -64.19, 156.69, -187500.02, -187500.02, -187500.02, 187500.00, -187500.02, -187500.02, 0.000, 0.000, 0.000, 16:05:24.762, 1563221124762
78, -110.17, 111.71, -187500.02, -187500.02, -187500.02, 187500.00, -187500.02, -187500.02, 0.000, 0.000, 0.000, 16:05:24.762, 1563221124762
79, -151.19, 71.99, -187500.02, -187500.02, -187500.02, 187500.00, -187500.02, -187500.02, 0.000, 0.000, 0.000, 16:05:24.762, 1563221124762
80, -106.60, 116.09, -187500.02, -187500.02, -187500.02, 187500.00, -187500.02, -187500.02, 0.000, 0.000, 0.000, 16:05:24.762, 1563221124762
81, -62.94, 158.38, -187500.02, -187500.02, -187500.02, 187500.00, -187500.02, -187500.02, 0.000, 0.000, 0.000, 16:05:24.762, 1563221124762
82, -99.44, 121.79, -187500.02, -187500.02, -187500.02, 187500.00, -187500.02, -187500.02, 0.000, 0.000, 0.000, 16:05:24.762, 1563221124762
